Pixel index,Intensity
1.00000000,0.00015412
2.00000000,0.00020567
3.00000000,0.00037513
4.00000000,0.00126128
5.00000000,0.00149315
6.00000000,0.00148944
7.00000000,0.00153545
8.00000000,0.00149473
9.00000000,0.00153016
10.00000000,0.00147357
11.00000000,0.00155475
12.00000000,0.00151323
13.00000000,0.00150716
14.00000000,0.00148415
15.00000000,0.00149314
16.00000000,0.00148231
17.00000000,0.00153811
18.00000000,0.00153704
19.00000000,0.00155661
20.00000000,0.00150002
21.00000000,0.00158622
22.00000000,0.00155818
23.00000000,0.00163590
24.00000000,0.00162162
25.00000000,0.00158251
26.00000000,0.00150821
27.00000000,0.00150373
28.00000000,0.00147887
29.00000000,0.00160419
30.00000000,0.00156875
31.00000000,0.00153147
32.00000000,0.00147886
33.00000000,0.00148257
34.00000000,0.00151324
35.00000000,0.00152091
36.00000000,0.00142073
37.00000000,0.00147201
38.00000000,0.00146804
39.00000000,0.00154868
40.00000000,0.00149473
41.00000000,0.00148812
42.00000000,0.00150107
43.00000000,0.00155397
44.00000000,0.00157934
45.00000000,0.00155395
46.00000000,0.00145269
47.00000000,0.00146142
48.00000000,0.00148943
49.00000000,0.00145085
50.00000000,0.00140484
51.00000000,0.00150902
52.00000000,0.00153438
53.00000000,0.00153545
54.00000000,0.00147622
55.00000000,0.00153386
56.00000000,0.00159598
57.00000000,0.00163856
58.00000000,0.00152910
59.00000000,0.00151694
60.00000000,0.00140749
61.00000000,0.00144266
62.00000000,0.00148415
63.00000000,0.00153016
64.00000000,0.00155817
65.00000000,0.00155395
66.00000000,0.00140246
67.00000000,0.00142732
68.00000000,0.00148151
69.00000000,0.00146354
70.00000000,0.00141541
71.00000000,0.00146143
72.00000000,0.00148416
73.00000000,0.00150373
74.00000000,0.00151350
75.00000000,0.00150637
76.00000000,0.00151667
77.00000000,0.00153280
78.00000000,0.00151060
79.00000000,0.00153810
80.00000000,0.00146565
81.00000000,0.00146142
82.00000000,0.00144450
83.00000000,0.00150902
84.00000000,0.00155289
85.00000000,0.00156717
86.00000000,0.00149209
87.00000000,0.00145614
88.00000000,0.00147357
89.00000000,0.00152487
90.00000000,0.00150266
91.00000000,0.00155395
92.00000000,0.00150002
93.00000000,0.00157776
94.00000000,0.00153967
95.00000000,0.00149844
96.00000000,0.00146592
97.00000000,0.00152487
98.00000000,0.00154601
99.00000000,0.00158303
100.00000000,0.00156611
101.00000000,0.00162269
102.00000000,0.00165335
103.00000000,0.00160682
104.00000000,0.00151799
105.00000000,0.00154603
106.00000000,0.00162692
107.00000000,0.00173902
108.00000000,0.00162693
109.00000000,0.00153546
110.00000000,0.00147358
111.00000000,0.00150663
112.00000000,0.00149658
113.00000000,0.00153809
114.00000000,0.00150582
115.00000000,0.00149129
116.00000000,0.00148151
117.00000000,0.00155925
118.00000000,0.00153704
119.00000000,0.00161211
120.00000000,0.00155817
121.00000000,0.00151324
122.00000000,0.00157139
123.00000000,0.00165493
124.00000000,0.00154389
125.00000000,0.00147994
126.00000000,0.00145509
127.00000000,0.00153994
128.00000000,0.00160312
129.00000000,0.00163327
130.00000000,0.00160048
131.00000000,0.00168614
132.00000000,0.00160207
133.00000000,0.00159626
134.00000000,0.00159255
135.00000000,0.00163591
136.00000000,0.00152910
137.00000000,0.00151695
138.00000000,0.00152646
139.00000000,0.00155396
140.00000000,0.00157935
141.00000000,0.00156453
142.00000000,0.00151060
143.00000000,0.00162798
144.00000000,0.00165336
145.00000000,0.00163856
146.00000000,0.00148257
147.00000000,0.00153042
148.00000000,0.00159519
149.00000000,0.00159097
150.00000000,0.00156346
151.00000000,0.00161528
152.00000000,0.00153570
153.00000000,0.00158304
154.00000000,0.00164675
155.00000000,0.00169725
156.00000000,0.00165864
157.00000000,0.00164385
158.00000000,0.00152909
159.00000000,0.00145614
160.00000000,0.00148943
161.00000000,0.00154866
162.00000000,0.00157299
163.00000000,0.00158833
164.00000000,0.00149420
165.00000000,0.00162268
166.00000000,0.00165865
167.00000000,0.00158834
168.00000000,0.00157404
169.00000000,0.00159626
170.00000000,0.00153570
171.00000000,0.00157247
172.00000000,0.00153969
173.00000000,0.00157512
174.00000000,0.00148946
175.00000000,0.00154339
176.00000000,0.00157139
177.00000000,0.00161740
178.00000000,0.00156374
179.00000000,0.00162270
180.00000000,0.00158992
181.00000000,0.00155661
182.00000000,0.00155553
183.00000000,0.00160154
184.00000000,0.00149208
185.00000000,0.00155130
186.00000000,0.00157774
187.00000000,0.00156188
188.00000000,0.00159519
189.00000000,0.00159625
190.00000000,0.00151851
191.00000000,0.00151165
192.00000000,0.00150002
193.00000000,0.00156717
194.00000000,0.00156348
195.00000000,0.00153280
196.00000000,0.00144714
197.00000000,0.00149420
198.00000000,0.00150529
199.00000000,0.00156452
200.00000000,0.00157668
201.00000000,0.00158304
202.00000000,0.00157669
203.00000000,0.00161212
204.00000000,0.00155554
205.00000000,0.00158039
206.00000000,0.00159254
207.00000000,0.00149314
208.00000000,0.00145771
209.00000000,0.00155607
210.00000000,0.00150715
211.00000000,0.00154603
212.00000000,0.00155819
213.00000000,0.00156982
214.00000000,0.00161634
215.00000000,0.00163062
216.00000000,0.00156637
217.00000000,0.00157775
218.00000000,0.00153704
219.00000000,0.00160261
220.00000000,0.00151853
221.00000000,0.00151536
222.00000000,0.00150319
223.00000000,0.00150108
224.00000000,0.00151588
225.00000000,0.00149976
226.00000000,0.00142493
227.00000000,0.00151615
228.00000000,0.00150796
229.00000000,0.00153783
230.00000000,0.00150265
231.00000000,0.00153015
232.00000000,0.00156082
233.00000000,0.00163882
234.00000000,0.00154762
235.00000000,0.00154603
236.00000000,0.00157934
237.00000000,0.00162587
238.00000000,0.00156610
239.00000000,0.00147040
240.00000000,0.00141461
241.00000000,0.00155659
242.00000000,0.00146643
243.00000000,0.00148838
244.00000000,0.00161370
245.00000000,0.00159361
246.00000000,0.00150293
247.00000000,0.00152223
248.00000000,0.00152910
249.00000000,0.00160154
250.00000000,0.00150398
251.00000000,0.00149050
252.00000000,0.00151851
253.00000000,0.00151746
254.00000000,0.00148574
255.00000000,0.00157511
256.00000000,0.00151853
257.00000000,0.00149844
258.00000000,0.00146038
259.00000000,0.00152224
260.00000000,0.00155025
261.00000000,0.00149844
262.00000000,0.00143391
263.00000000,0.00149314
264.00000000,0.00148150
265.00000000,0.00160683
266.00000000,0.00161106
267.00000000,0.00151430
268.00000000,0.00136043
269.00000000,0.00140591
270.00000000,0.00143445
271.00000000,0.00152618
272.00000000,0.00153438
273.00000000,0.00154867
274.00000000,0.00149764
275.00000000,0.00146144
276.00000000,0.00147623
277.00000000,0.00154997
278.00000000,0.00153965
279.00000000,0.00153543
280.00000000,0.00149207
281.00000000,0.00160973
282.00000000,0.00153703
283.00000000,0.00148786
284.00000000,0.00152645
285.00000000,0.00156189
286.00000000,0.00155026
287.00000000,0.00156190
288.00000000,0.00144980
289.00000000,0.00149845
290.00000000,0.00150002
291.00000000,0.00148364
292.00000000,0.00147886
293.00000000,0.00155659
294.00000000,0.00156082
295.00000000,0.00161212
296.00000000,0.00152116
297.00000000,0.00154867
298.00000000,0.00157932
299.00000000,0.00151694
300.00000000,0.00141013
301.00000000,0.00156452
302.00000000,0.00157933
303.00000000,0.00159362
304.00000000,0.00159519
305.00000000,0.00160682
306.00000000,0.00148679
307.00000000,0.00148258
308.00000000,0.00155025
309.00000000,0.00159625
310.00000000,0.00151323
311.00000000,0.00155924
312.00000000,0.00151852
313.00000000,0.00150637
314.00000000,0.00157246
315.00000000,0.00160419
316.00000000,0.00152381
317.00000000,0.00152223
318.00000000,0.00148071
319.00000000,0.00151694
320.00000000,0.00150002
321.00000000,0.00152910
322.00000000,0.00148679
323.00000000,0.00158039
324.00000000,0.00149739
325.00000000,0.00150902
326.00000000,0.00158197
327.00000000,0.00160683
328.00000000,0.00162692
329.00000000,0.00163326
330.00000000,0.00148176
331.00000000,0.00154073
332.00000000,0.00156214
333.00000000,0.00162850
334.00000000,0.00159519
335.00000000,0.00159388
336.00000000,0.00152381
337.00000000,0.00153810
338.00000000,0.00154179
339.00000000,0.00167556
340.00000000,0.00166392
341.00000000,0.00162798
342.00000000,0.00157405
343.00000000,0.00158303
344.00000000,0.00162162
345.00000000,0.00160153
346.00000000,0.00161105
347.00000000,0.00162797
348.00000000,0.00163220
349.00000000,0.00169936
350.00000000,0.00161898
351.00000000,0.00161742
352.00000000,0.00161372
353.00000000,0.00160949
354.00000000,0.00162957
355.00000000,0.00170201
356.00000000,0.00170093
357.00000000,0.00169935
358.00000000,0.00162162
359.00000000,0.00164516
360.00000000,0.00164805
361.00000000,0.00169750
362.00000000,0.00165600
363.00000000,0.00164649
364.00000000,0.00161106
365.00000000,0.00176282
366.00000000,0.00167451
367.00000000,0.00168349
368.00000000,0.00168771
369.00000000,0.00163855
370.00000000,0.00161900
371.00000000,0.00170387
372.00000000,0.00170359
373.00000000,0.00169672
374.00000000,0.00155554
375.00000000,0.00158303
376.00000000,0.00159096
377.00000000,0.00168086
378.00000000,0.00172739
379.00000000,0.00173902
380.00000000,0.00164278
381.00000000,0.00159362
382.00000000,0.00158727
383.00000000,0.00169408
384.00000000,0.00166130
385.00000000,0.00166500
386.00000000,0.00170280
387.00000000,0.00167478
388.00000000,0.00162163
389.00000000,0.00173110
390.00000000,0.00167979
391.00000000,0.00167028
392.00000000,0.00161634
393.00000000,0.00169937
394.00000000,0.00177761
395.00000000,0.00179454
396.00000000,0.00168772
397.00000000,0.00167557
398.00000000,0.00173425
399.00000000,0.00177074
400.00000000,0.00175118
401.00000000,0.00179797
402.00000000,0.00176174
403.00000000,0.00174166
404.00000000,0.00168507
405.00000000,0.00174614
406.00000000,0.00171151
407.00000000,0.00179718
408.00000000,0.00181727
409.00000000,0.00184741
410.00000000,0.00176174
411.00000000,0.00173636
412.00000000,0.00178368
413.00000000,0.00178924
414.00000000,0.00170093
415.00000000,0.00173108
416.00000000,0.00172473
417.00000000,0.00178396
418.00000000,0.00171680
419.00000000,0.00169671
420.00000000,0.00165309
421.00000000,0.00174694
422.00000000,0.00179610
423.00000000,0.00179190
424.00000000,0.00167186
425.00000000,0.00174693
426.00000000,0.00173530
427.00000000,0.00168350
428.00000000,0.00161635
429.00000000,0.00168614
430.00000000,0.00169035
431.00000000,0.00173901
432.00000000,0.00175645
433.00000000,0.00183419
434.00000000,0.00174853
435.00000000,0.00164386
436.00000000,0.00160314
437.00000000,0.00167003
438.00000000,0.00164701
439.00000000,0.00172052
440.00000000,0.00178819
441.00000000,0.00176016
442.00000000,0.00161632
443.00000000,0.00158911
444.00000000,0.00163220
445.00000000,0.00176809
446.00000000,0.00162692
447.00000000,0.00167556
448.00000000,0.00178288
449.00000000,0.00175223
450.00000000,0.00163325
451.00000000,0.00168085
452.00000000,0.00171445
453.00000000,0.00168088
454.00000000,0.00168799
455.00000000,0.00173373
456.00000000,0.00162163
457.00000000,0.00163326
458.00000000,0.00162955
459.00000000,0.00167055
460.00000000,0.00163512
461.00000000,0.00161212
462.00000000,0.00157931
463.00000000,0.00166234
464.00000000,0.00168507
465.00000000,0.00172050
466.00000000,0.00160312
467.00000000,0.00152647
468.00000000,0.00155290
469.00000000,0.00162746
470.00000000,0.00158223
471.00000000,0.00154337
472.00000000,0.00151059
473.00000000,0.00160683
474.00000000,0.00157933
475.00000000,0.00155448
476.00000000,0.00159255
477.00000000,0.00162269
478.00000000,0.00159782
479.00000000,0.00167292
480.00000000,0.00166657
481.00000000,0.00155660
482.00000000,0.00142601
483.00000000,0.00149580
484.00000000,0.00153967
485.00000000,0.00167292
486.00000000,0.00160575
487.00000000,0.00159625
488.00000000,0.00158197
489.00000000,0.00159546
490.00000000,0.00163220
491.00000000,0.00165970
492.00000000,0.00151112
493.00000000,0.00149447
494.00000000,0.00152646
495.00000000,0.00158040
496.00000000,0.00153413
497.00000000,0.00153572
498.00000000,0.00150134
499.00000000,0.00152250
500.00000000,0.00153122
501.00000000,0.00160075
502.00000000,0.00147886
503.00000000,0.00143155
504.00000000,0.00144450
505.00000000,0.00150637
506.00000000,0.00150794
507.00000000,0.00147384
508.00000000,0.00144925
509.00000000,0.00152488
510.00000000,0.00147887
511.00000000,0.00147729
512.00000000,0.00152910
513.00000000,0.00157510
514.00000000,0.00148176
515.00000000,0.00150160
516.00000000,0.00150028
517.00000000,0.00153545
518.00000000,0.00150266
519.00000000,0.00147466
520.00000000,0.00134668
521.00000000,0.00144821
522.00000000,0.00140750
523.00000000,0.00150637
524.00000000,0.00162956
525.00000000,0.00160789
526.00000000,0.00150266
527.00000000,0.00151958
528.00000000,0.00149605
529.00000000,0.00149976
530.00000000,0.00145243
531.00000000,0.00148257
532.00000000,0.00144608
533.00000000,0.00149315
534.00000000,0.00152380
535.00000000,0.00154601
536.00000000,0.00150952
537.00000000,0.00154073
538.00000000,0.00145005
539.00000000,0.00142440
540.00000000,0.00144979
541.00000000,0.00147994
542.00000000,0.00145242
543.00000000,0.00157246
544.00000000,0.00158991
545.00000000,0.00159097
546.00000000,0.00156082
547.00000000,0.00161740
548.00000000,0.00155553
549.00000000,0.00153810
550.00000000,0.00147359
551.00000000,0.00154630
552.00000000,0.00149473
553.00000000,0.00149316
554.00000000,0.00156611
555.00000000,0.00164120
556.00000000,0.00170227
557.00000000,0.00168614
558.00000000,0.00155288
559.00000000,0.00158646
560.00000000,0.00158460
561.00000000,0.00160154
562.00000000,0.00158990
563.00000000,0.00168086
564.00000000,0.00169037
565.00000000,0.00171258
566.00000000,0.00165071
567.00000000,0.00166235
568.00000000,0.00160577
569.00000000,0.00163856
570.00000000,0.00169036
571.00000000,0.00177602
572.00000000,0.00173795
573.00000000,0.00175224
574.00000000,0.00174852
575.00000000,0.00181568
576.00000000,0.00177231
577.00000000,0.00179717
578.00000000,0.00185956
579.00000000,0.00185799
580.00000000,0.00184370
581.00000000,0.00183684
582.00000000,0.00171944
583.00000000,0.00180509
584.00000000,0.00184633
585.00000000,0.00181568
586.00000000,0.00176438
587.00000000,0.00177338
588.00000000,0.00185957
589.00000000,0.00201662
590.00000000,0.00190212
591.00000000,0.00189763
592.00000000,0.00188334
593.00000000,0.00190820
594.00000000,0.00194945
595.00000000,0.00196373
596.00000000,0.00189657
597.00000000,0.00191350
598.00000000,0.00189129
599.00000000,0.00198224
600.00000000,0.00195208
601.00000000,0.00196637
602.00000000,0.00193623
603.00000000,0.00199282
604.00000000,0.00203669
605.00000000,0.00205361
606.00000000,0.00198380
607.00000000,0.00213821
608.00000000,0.00214772
609.00000000,0.00211443
610.00000000,0.00211336
611.00000000,0.00207478
612.00000000,0.00204991
613.00000000,0.00209592
614.00000000,0.00208692
615.00000000,0.00214087
616.00000000,0.00208428
617.00000000,0.00209592
618.00000000,0.00216094
619.00000000,0.00220959
620.00000000,0.00210806
621.00000000,0.00217787
622.00000000,0.00221910
623.00000000,0.00217257
624.00000000,0.00215565
625.00000000,0.00230477
626.00000000,0.00229841
627.00000000,0.00226246
628.00000000,0.00216094
629.00000000,0.00221225
630.00000000,0.00220060
631.00000000,0.00225454
632.00000000,0.00222439
633.00000000,0.00230741
634.00000000,0.00233541
635.00000000,0.00225717
636.00000000,0.00223231
637.00000000,0.00222281
638.00000000,0.00216094
639.00000000,0.00225455
640.00000000,0.00228255
641.00000000,0.00228626
642.00000000,0.00225611
643.00000000,0.00234706
644.00000000,0.00233808
645.00000000,0.00232593
646.00000000,0.00232221
647.00000000,0.00234971
648.00000000,0.00237243
649.00000000,0.00235500
650.00000000,0.00228255
651.00000000,0.00234972
652.00000000,0.00238039
653.00000000,0.00247927
654.00000000,0.00239095
655.00000000,0.00237615
656.00000000,0.00232749
657.00000000,0.00234178
658.00000000,0.00233542
659.00000000,0.00245281
660.00000000,0.00238829
661.00000000,0.00236820
662.00000000,0.00238301
663.00000000,0.00237086
664.00000000,0.00231163
665.00000000,0.00236030
666.00000000,0.00236187
667.00000000,0.00233122
668.00000000,0.00223762
669.00000000,0.00238673
670.00000000,0.00239888
671.00000000,0.00242903
672.00000000,0.00244118
673.00000000,0.00242638
674.00000000,0.00237245
675.00000000,0.00235502
676.00000000,0.00230370
677.00000000,0.00237350
678.00000000,0.00235657
679.00000000,0.00240788
680.00000000,0.00230370
681.00000000,0.00233385
682.00000000,0.00231428
683.00000000,0.00234972
684.00000000,0.00227197
685.00000000,0.00224925
686.00000000,0.00225348
687.00000000,0.00238408
688.00000000,0.00232484
689.00000000,0.00231534
690.00000000,0.00226670
691.00000000,0.00227570
692.00000000,0.00221646
693.00000000,0.00227305
694.00000000,0.00224818
695.00000000,0.00214087
696.00000000,0.00205255
697.00000000,0.00224396
698.00000000,0.00229314
699.00000000,0.00227042
700.00000000,0.00214508
701.00000000,0.00219901
702.00000000,0.00209749
703.00000000,0.00204833
704.00000000,0.00204727
705.00000000,0.00214086
706.00000000,0.00215829
707.00000000,0.00221753
708.00000000,0.00204991
709.00000000,0.00202982
710.00000000,0.00202877
711.00000000,0.00207213
712.00000000,0.00209220
713.00000000,0.00207212
714.00000000,0.00192830
715.00000000,0.00196638
716.00000000,0.00194680
717.00000000,0.00192672
718.00000000,0.00184634
719.00000000,0.00192143
720.00000000,0.00186749
721.00000000,0.00189764
722.00000000,0.00187542
723.00000000,0.00184741
724.00000000,0.00177152
725.00000000,0.00181488
726.00000000,0.00182255
727.00000000,0.00184476
728.00000000,0.00187542
729.00000000,0.00197166
730.00000000,0.00188863
731.00000000,0.00178659
732.00000000,0.00160840
733.00000000,0.00168085
734.00000000,0.00169352
735.00000000,0.00167821
736.00000000,0.00163749
737.00000000,0.00167820
738.00000000,0.00164832
739.00000000,0.00161264
740.00000000,0.00162426
741.00000000,0.00168086
742.00000000,0.00153914
743.00000000,0.00152222
744.00000000,0.00157429
745.00000000,0.00163219
746.00000000,0.00160576
747.00000000,0.00160683
748.00000000,0.00160946
749.00000000,0.00160444
750.00000000,0.00160313
751.00000000,0.00161741
752.00000000,0.00151325
753.00000000,0.00160948
754.00000000,0.00161898
755.00000000,0.00152222
756.00000000,0.00147885
757.00000000,0.00154338
758.00000000,0.00152011
759.00000000,0.00154602
760.00000000,0.00149235
761.00000000,0.00147940
762.00000000,0.00142626
763.00000000,0.00152568
764.00000000,0.00144451
765.00000000,0.00139798
766.00000000,0.00145772
767.00000000,0.00153280
768.00000000,0.00150266
769.00000000,0.00148786
770.00000000,0.00144529
771.00000000,0.00137735
772.00000000,0.00135461
773.00000000,0.00150374
774.00000000,0.00150796
775.00000000,0.00147993
776.00000000,0.00144503
777.00000000,0.00140617
778.00000000,0.00144899
779.00000000,0.00153545
780.00000000,0.00154627
781.00000000,0.00154152
782.00000000,0.00145243
783.00000000,0.00153016
784.00000000,0.00156082
785.00000000,0.00163856
786.00000000,0.00161372
787.00000000,0.00160949
788.00000000,0.00152832
789.00000000,0.00159309
790.00000000,0.00166128
791.00000000,0.00170464
792.00000000,0.00170358
793.00000000,0.00174166
794.00000000,0.00169037
795.00000000,0.00171258
796.00000000,0.00171944
797.00000000,0.00173901
798.00000000,0.00170887
799.00000000,0.00177338
800.00000000,0.00179082
801.00000000,0.00180511
802.00000000,0.00179346
803.00000000,0.00183682
804.00000000,0.00181990
805.00000000,0.00191615
806.00000000,0.00190715
807.00000000,0.00188706
808.00000000,0.00187013
809.00000000,0.00194523
810.00000000,0.00194416
811.00000000,0.00196373
812.00000000,0.00199175
813.00000000,0.00209513
814.00000000,0.00218212
815.00000000,0.00222283
816.00000000,0.00225612
817.00000000,0.00231270
818.00000000,0.00232485
819.00000000,0.00238144
820.00000000,0.00241209
821.00000000,0.00248982
822.00000000,0.00248876
823.00000000,0.00252950
824.00000000,0.00253106
825.00000000,0.00261143
826.00000000,0.00258657
827.00000000,0.00265109
828.00000000,0.00266588
829.00000000,0.00269869
830.00000000,0.00279544
831.00000000,0.00286788
832.00000000,0.00283508
833.00000000,0.00294718
834.00000000,0.00302542
835.00000000,0.00297626
836.00000000,0.00300428
837.00000000,0.00315076
838.00000000,0.00313911
839.00000000,0.00319834
840.00000000,0.00323428
841.00000000,0.00335432
842.00000000,0.00337440
843.00000000,0.00343363
844.00000000,0.00345635
845.00000000,0.00353409
846.00000000,0.00360440
847.00000000,0.00366363
848.00000000,0.00368635
849.00000000,0.00387515
850.00000000,0.00388201
851.00000000,0.00385927
852.00000000,0.00384762
853.00000000,0.00395972
854.00000000,0.00400095
855.00000000,0.00405754
856.00000000,0.00405382
857.00000000,0.00412365
858.00000000,0.00411993
859.00000000,0.00422675
860.00000000,0.00428118
861.00000000,0.00434836
862.00000000,0.00433936
863.00000000,0.00446204
864.00000000,0.00449267
865.00000000,0.00457305
866.00000000,0.00463016
867.00000000,0.00471319
868.00000000,0.00459052
869.00000000,0.00468149
870.00000000,0.00474384
871.00000000,0.00481895
872.00000000,0.00488396
873.00000000,0.00499871
874.00000000,0.00502935
875.00000000,0.00508859
876.00000000,0.00488660
877.00000000,0.00511503
878.00000000,0.00511131
879.00000000,0.00504629
880.00000000,0.00501084
881.00000000,0.00517054
882.00000000,0.00528315
883.00000000,0.00539528
884.00000000,0.00527258
885.00000000,0.00521022
886.00000000,0.00527785
887.00000000,0.00556973
888.00000000,0.00559509
889.00000000,0.00551952
890.00000000,0.00547616
891.00000000,0.00574954
892.00000000,0.00570351
893.00000000,0.00576539
894.00000000,0.00572993
895.00000000,0.00579446
896.00000000,0.00574580
897.00000000,0.00578654
898.00000000,0.00574580
899.00000000,0.00580769
900.00000000,0.00576960
901.00000000,0.00590552
902.00000000,0.00586479
903.00000000,0.00581828
904.00000000,0.00574053
905.00000000,0.00588172
906.00000000,0.00584626
907.00000000,0.00579448
908.00000000,0.00573522
909.00000000,0.00582619
910.00000000,0.00583569
911.00000000,0.00586850
912.00000000,0.00567972
913.00000000,0.00573367
914.00000000,0.00575374
915.00000000,0.00575218
916.00000000,0.00559511
917.00000000,0.00567286
918.00000000,0.00572730
919.00000000,0.00580242
920.00000000,0.00572469
921.00000000,0.00572045
922.00000000,0.00566649
923.00000000,0.00558827
924.00000000,0.00558719
925.00000000,0.00576011
926.00000000,0.00559512
927.00000000,0.00562528
928.00000000,0.00561364
929.00000000,0.00553805
930.00000000,0.00528317
931.00000000,0.00540058
932.00000000,0.00537040
933.00000000,0.00539527
934.00000000,0.00532546
935.00000000,0.00525781
936.00000000,0.00518799
937.00000000,0.00521021
938.00000000,0.00511661
939.00000000,0.00507275
940.00000000,0.00499501
941.00000000,0.00505952
942.00000000,0.00505050
943.00000000,0.00501192
944.00000000,0.00484430
945.00000000,0.00490355
946.00000000,0.00479407
947.00000000,0.00466296
948.00000000,0.00455615
949.00000000,0.00450434
950.00000000,0.00433143
951.00000000,0.00446733
952.00000000,0.00441866
953.00000000,0.00445940
954.00000000,0.00435523
955.00000000,0.00422940
956.00000000,0.00401683
957.00000000,0.00405755
958.00000000,0.00399832
959.00000000,0.00395975
960.00000000,0.00386349
961.00000000,0.00385927
962.00000000,0.00370222
963.00000000,0.00377997
964.00000000,0.00364934
965.00000000,0.00355789
966.00000000,0.00356740
967.00000000,0.00353938
968.00000000,0.00334004
969.00000000,0.00335433
970.00000000,0.00322637
971.00000000,0.00318512
972.00000000,0.00303864
973.00000000,0.00303178
974.00000000,0.00292762
975.00000000,0.00290226
976.00000000,0.00282982
977.00000000,0.00288376
978.00000000,0.00279015
979.00000000,0.00266698
980.00000000,0.00253293
981.00000000,0.00254007
982.00000000,0.00239095
983.00000000,0.00235764
984.00000000,0.00228519
985.00000000,0.00229685
986.00000000,0.00226669
987.00000000,0.00219638
988.00000000,0.00213715
989.00000000,0.00212765
990.00000000,0.00201553
991.00000000,0.00204303
992.00000000,0.00200761
993.00000000,0.00201133
994.00000000,0.00189657
995.00000000,0.00190820
996.00000000,0.00185691
997.00000000,0.00187385
998.00000000,0.00180670
999.00000000,0.00176545
1000.00000000,0.00171944
1001.00000000,0.00167557
1002.00000000,0.00146830
1003.00000000,0.00152487
1004.00000000,0.00152380
1005.00000000,0.00144556
1006.00000000,0.00142442
1007.00000000,0.00138213
1008.00000000,0.00138634
1009.00000000,0.00147728
1010.00000000,0.00143656
1011.00000000,0.00148786
1012.00000000,0.00140483
1013.00000000,0.00134801
1014.00000000,0.00137920
1015.00000000,0.00139085
1016.00000000,0.00136811
1017.00000000,0.00146486
1018.00000000,0.00156874
1019.00000000,0.00159624
1020.00000000,0.00158911
1021.00000000,0.00160684
1022.00000000,0.00163061
1023.00000000,0.00168350
1024.00000000,0.00164199
1025.00000000,0.00179983
1026.00000000,0.00184370
1027.00000000,0.00180511
1028.00000000,0.00180668
1029.00000000,0.00185056
1030.00000000,0.00187014
1031.00000000,0.00199019
1032.00000000,0.00206314
1033.00000000,0.00218316
1034.00000000,0.00225876
1035.00000000,0.00237615
1036.00000000,0.00247290
1037.00000000,0.00254800
1038.00000000,0.00261831
1039.00000000,0.00281237
1040.00000000,0.00295670
1041.00000000,0.00312697
1042.00000000,0.00316554
1043.00000000,0.00323535
1044.00000000,0.00339556
1045.00000000,0.00357640
1046.00000000,0.00368637
1047.00000000,0.00380905
1048.00000000,0.00386613
1049.00000000,0.00405754
1050.00000000,0.00413578
1051.00000000,0.00429813
1052.00000000,0.00440016
1053.00000000,0.00463124
1054.00000000,0.00472003
1055.00000000,0.00487180
1056.00000000,0.00495534
1057.00000000,0.00532126
1058.00000000,0.00548674
1059.00000000,0.00558563
1060.00000000,0.00578017
1061.00000000,0.00605884
1062.00000000,0.00625603
1063.00000000,0.00647655
1064.00000000,0.00664467
1065.00000000,0.00687574
1066.00000000,0.00705179
1067.00000000,0.00738598
1068.00000000,0.00757788
1069.00000000,0.00789623
1070.00000000,0.00804584
1071.00000000,0.00839059
1072.00000000,0.00851375
1073.00000000,0.00867084
1074.00000000,0.00888388
1075.00000000,0.00924186
1076.00000000,0.00947343
1077.00000000,0.00978913
1078.00000000,0.00985939
1079.00000000,0.01023062
1080.00000000,0.01056528
1081.00000000,0.01089684
1082.00000000,0.01099355
1083.00000000,0.01124051
1084.00000000,0.01146413
1085.00000000,0.01190410
1086.00000000,0.01212505
1087.00000000,0.01243547
1088.00000000,0.01250575
1089.00000000,0.01275801
1090.00000000,0.01297896
1091.00000000,0.01339514
1092.00000000,0.01355265
1093.00000000,0.01386838
1094.00000000,0.01384349
1095.00000000,0.01408253
1096.00000000,0.01446212
1097.00000000,0.01502370
1098.00000000,0.01518647
1099.00000000,0.01543873
1100.00000000,0.01599807
1101.00000000,0.01634553
1102.00000000,0.01605097
1103.00000000,0.01626888
1104.00000000,0.01660878
1105.00000000,0.01688486
1106.00000000,0.01704766
1107.00000000,0.01732107
1108.00000000,0.01750499
1109.00000000,0.01822522
1110.00000000,0.01872111
1111.00000000,0.01887823
1112.00000000,0.01898018
1113.00000000,0.01952856
1114.00000000,0.01968341
1115.00000000,0.01989077
1116.00000000,0.02001387
1117.00000000,0.02042214
1118.00000000,0.02072767
1119.00000000,0.02085307
1120.00000000,0.02110308
1121.00000000,0.02131305
1122.00000000,0.02147846
1123.00000000,0.02179158
1124.00000000,0.02177457
1125.00000000,0.02192113
1126.00000000,0.02212354
1127.00000000,0.02227537
1128.00000000,0.02234296
1129.00000000,0.02242872
1130.00000000,0.02238000
1131.00000000,0.02255825
1132.00000000,0.02270515
1133.00000000,0.02298125
1134.00000000,0.02317572
1135.00000000,0.02338310
1136.00000000,0.02326033
1137.00000000,0.02313724
1138.00000000,0.02327091
1139.00000000,0.02347827
1140.00000000,0.02368068
1141.00000000,0.02411803
1142.00000000,0.02444207
1143.00000000,0.02469703
1144.00000000,0.02477518
1145.00000000,0.02472875
1146.00000000,0.02481485
1147.00000000,0.02501957
1148.00000000,0.02499725
1149.00000000,0.02502220
1150.00000000,0.02501309
1151.00000000,0.02505920
1152.00000000,0.02518494
1153.00000000,0.02531831
1154.00000000,0.02517703
1155.00000000,0.02516497
1156.00000000,0.02519026
1157.00000000,0.02517289
1158.00000000,0.02511620
1159.00000000,0.02494555
1160.00000000,0.02486773
1161.00000000,0.02471554
1162.00000000,0.02468530
1163.00000000,0.02456485
1164.00000000,0.02438128
1165.00000000,0.02436922
1166.00000000,0.02409048
1167.00000000,0.02374796
1168.00000000,0.02361989
1169.00000000,0.02345978
1170.00000000,0.02327093
1171.00000000,0.02307115
1172.00000000,0.02310963
1173.00000000,0.02346505
1174.00000000,0.02351943
1175.00000000,0.02325092
1176.00000000,0.02293251
1177.00000000,0.02264285
1178.00000000,0.02242757
1179.00000000,0.02211147
1180.00000000,0.02202572
1181.00000000,0.02199778
1182.00000000,0.02157895
1183.00000000,0.02136596
1184.00000000,0.02136483
1185.00000000,0.02119676
1186.00000000,0.02073825
1187.00000000,0.02041156
1188.00000000,0.02026236
1189.00000000,0.02004143
1190.00000000,0.01971246
1191.00000000,0.01935670
1192.00000000,0.01904625
1193.00000000,0.01876454
1194.00000000,0.01831662
1195.00000000,0.01777577
1196.00000000,0.01729878
1197.00000000,0.01704612
1198.00000000,0.01673037
1199.00000000,0.01638518
1200.00000000,0.01590026
1201.00000000,0.01552864
1202.00000000,0.01518912
1203.00000000,0.01484656
1204.00000000,0.01452554
1205.00000000,0.01420411
1206.00000000,0.01373772
1207.00000000,0.01361987
1208.00000000,0.01329623
1209.00000000,0.01289285
1210.00000000,0.01234979
1211.00000000,0.01204423
1212.00000000,0.01177346
1213.00000000,0.01158684
1214.00000000,0.01115746
1215.00000000,0.01081224
1216.00000000,0.01046215
1217.00000000,0.01016715
1218.00000000,0.00976156
1219.00000000,0.00938990
1220.00000000,0.00895261
1221.00000000,0.00868403
1222.00000000,0.00822294
1223.00000000,0.00808921
1224.00000000,0.00765985
1225.00000000,0.00722738
1226.00000000,0.00685882
1227.00000000,0.00664047
1228.00000000,0.00623225
1229.00000000,0.00602183
1230.00000000,0.00562685
1231.00000000,0.00537942
1232.00000000,0.00491832
1233.00000000,0.00459950
1234.00000000,0.00429704
1235.00000000,0.00413951
1236.00000000,0.00381327
1237.00000000,0.00364250
1238.00000000,0.00333476
1239.00000000,0.00321422
1240.00000000,0.00297520
1241.00000000,0.00289167
1242.00000000,0.00259981
1243.00000000,0.00239731
1244.00000000,0.00216094
1245.00000000,0.00208270
1246.00000000,0.00203405
1247.00000000,0.00207211
1248.00000000,0.00194573
1249.00000000,0.00185004
1250.00000000,0.00171151
1251.00000000,0.00173109
1252.00000000,0.00171943
1253.00000000,0.00172843
1254.00000000,0.00171943
1255.00000000,0.00181568
1256.00000000,0.00192830
1257.00000000,0.00197959
1258.00000000,0.00199439
1259.00000000,0.00222810
1260.00000000,0.00241736
1261.00000000,0.00255326
1262.00000000,0.00271611
1263.00000000,0.00296305
1264.00000000,0.00316027
1265.00000000,0.00349446
1266.00000000,0.00376833
1267.00000000,0.00406550
1268.00000000,0.00450327
1269.00000000,0.00487183
1270.00000000,0.00522236
1271.00000000,0.00578654
1272.00000000,0.00634857
1273.00000000,0.00681759
1274.00000000,0.00721570
1275.00000000,0.00786978
1276.00000000,0.00840272
1277.00000000,0.00922337
1278.00000000,0.01001539
1279.00000000,0.01081224
1280.00000000,0.01141918
1281.00000000,0.01223985
1282.00000000,0.01308473
1283.00000000,0.01395033
1284.00000000,0.01465244
1285.00000000,0.01587496
1286.00000000,0.01687051
1287.00000000,0.01820935
1288.00000000,0.01925778
1289.00000000,0.02026088
1290.00000000,0.02115329
1291.00000000,0.02248953
1292.00000000,0.02352735
1293.00000000,0.02498783
1294.00000000,0.02623715
1295.00000000,0.02750731
1296.00000000,0.02845258
1297.00000000,0.02983905
1298.00000000,0.03095350
1299.00000000,0.03250392
1300.00000000,0.03403080
1301.00000000,0.03592755
1302.00000000,0.03734335
1303.00000000,0.03896250
1304.00000000,0.04048669
1305.00000000,0.04231473
1306.00000000,0.04379397
1307.00000000,0.04580445
1308.00000000,0.04781507
1309.00000000,0.05013484
1310.00000000,0.05213221
1311.00000000,0.05419030
1312.00000000,0.05637007
1313.00000000,0.05869780
1314.00000000,0.06103090
1315.00000000,0.06331641
1316.00000000,0.06571291
1317.00000000,0.06764416
1318.00000000,0.06981594
1319.00000000,0.07223892
1320.00000000,0.07526990
1321.00000000,0.07764269
1322.00000000,0.07975102
1323.00000000,0.08187532
1324.00000000,0.08452025
1325.00000000,0.08624801
1326.00000000,0.08889826
1327.00000000,0.09142173
1328.00000000,0.09442089
1329.00000000,0.09711891
1330.00000000,0.10071818
1331.00000000,0.10326555
1332.00000000,0.10661628
1333.00000000,0.10885699
1334.00000000,0.11227644
1335.00000000,0.11592099
1336.00000000,0.12004895
1337.00000000,0.12265193
1338.00000000,0.12680097
1339.00000000,0.13022880
1340.00000000,0.13396008
1341.00000000,0.13674822
1342.00000000,0.14143124
1343.00000000,0.14599065
1344.00000000,0.15133452
1345.00000000,0.15480479
1346.00000000,0.15935817
1347.00000000,0.16230498
1348.00000000,0.16787882
1349.00000000,0.17194923
1350.00000000,0.17618533
1351.00000000,0.17843427
1352.00000000,0.18380450
1353.00000000,0.18683602
1354.00000000,0.19120955
1355.00000000,0.19299849
1356.00000000,0.19745655
1357.00000000,0.20056220
1358.00000000,0.20519740
1359.00000000,0.20846951
1360.00000000,0.21442119
1361.00000000,0.21783089
1362.00000000,0.22280704
1363.00000000,0.22622994
1364.00000000,0.23286629
1365.00000000,0.23730715
1366.00000000,0.24391700
1367.00000000,0.24824150
1368.00000000,0.25556776
1369.00000000,0.25948528
1370.00000000,0.26529130
1371.00000000,0.26900522
1372.00000000,0.27729903
1373.00000000,0.28388142
1374.00000000,0.29157493
1375.00000000,0.29514356
1376.00000000,0.30136197
1377.00000000,0.30590094
1378.00000000,0.31435846
1379.00000000,0.31768403
1380.00000000,0.32397104
1381.00000000,0.32713524
1382.00000000,0.33234888
1383.00000000,0.33378421
1384.00000000,0.34110212
1385.00000000,0.34395716
1386.00000000,0.34912579
1387.00000000,0.35129614
1388.00000000,0.35921677
1389.00000000,0.36126028
1390.00000000,0.36545591
1391.00000000,0.36776379
1392.00000000,0.37557331
1393.00000000,0.38089777
1394.00000000,0.39142238
1395.00000000,0.39771449
1396.00000000,0.40431311
1397.00000000,0.40767862
1398.00000000,0.41606961
1399.00000000,0.42410662
1400.00000000,0.43337528
1401.00000000,0.43574958
1402.00000000,0.44555219
1403.00000000,0.45280945
1404.00000000,0.46113950
1405.00000000,0.46625538
1406.00000000,0.47350672
1407.00000000,0.47794858
1408.00000000,0.48477423
1409.00000000,0.48716987
1410.00000000,0.49434432
1411.00000000,0.49597333
1412.00000000,0.50026627
1413.00000000,0.50193761
1414.00000000,0.50985763
1415.00000000,0.51470670
1416.00000000,0.51898897
1417.00000000,0.51896046
1418.00000000,0.52477336
1419.00000000,0.52595573
1420.00000000,0.53115530
1421.00000000,0.53563965
1422.00000000,0.54243067
1423.00000000,0.54943189
1424.00000000,0.55973111
1425.00000000,0.56344362
1426.00000000,0.56937534
1427.00000000,0.57536150
1428.00000000,0.58327333
1429.00000000,0.58648888
1430.00000000,0.59510379
1431.00000000,0.60482033
1432.00000000,0.61133350
1433.00000000,0.61677001
1434.00000000,0.62208020
1435.00000000,0.62681609
1436.00000000,0.63237734
1437.00000000,0.63480006
1438.00000000,0.63779443
1439.00000000,0.64029118
1440.00000000,0.64363425
1441.00000000,0.64603588
1442.00000000,0.64747291
1443.00000000,0.64871390
1444.00000000,0.64949800
1445.00000000,0.64936959
1446.00000000,0.65003464
1447.00000000,0.65218772
1448.00000000,0.65474308
1449.00000000,0.65984659
1450.00000000,0.66537073
1451.00000000,0.67033947
1452.00000000,0.67298721
1453.00000000,0.67612655
1454.00000000,0.68224553
1455.00000000,0.68817928
1456.00000000,0.69047269
1457.00000000,0.69619501
1458.00000000,0.69915727
1459.00000000,0.70455446
1460.00000000,0.70585641
1461.00000000,0.71042349
1462.00000000,0.70835733
1463.00000000,0.71240892
1464.00000000,0.71276700
1465.00000000,0.71851060
1466.00000000,0.71662684
1467.00000000,0.72060972
1468.00000000,0.71652382
1469.00000000,0.71912927
1470.00000000,0.71409159
1471.00000000,0.71873537
1472.00000000,0.71662958
1473.00000000,0.71921919
1474.00000000,0.71433214
1475.00000000,0.71747427
1476.00000000,0.71175445
1477.00000000,0.71745310
1478.00000000,0.71867840
1479.00000000,0.72391443
1480.00000000,0.72312506
1481.00000000,0.72938944
1482.00000000,0.72938002
1483.00000000,0.73700863
1484.00000000,0.73568533
1485.00000000,0.74086853
1486.00000000,0.73449299
1487.00000000,0.74105886
1488.00000000,0.73841357
1489.00000000,0.74568796
1490.00000000,0.74236066
1491.00000000,0.74818629
1492.00000000,0.74131641
1493.00000000,0.74680098
1494.00000000,0.73936797
1495.00000000,0.74444279
1496.00000000,0.73608979
1497.00000000,0.74018908
1498.00000000,0.73252879
1499.00000000,0.73678665
1500.00000000,0.73001987
1501.00000000,0.73428300
1502.00000000,0.72693460
1503.00000000,0.73138016
1504.00000000,0.72765906
1505.00000000,0.73210726
1506.00000000,0.72772509
1507.00000000,0.73355069
1508.00000000,0.73176731
1509.00000000,0.73681565
1510.00000000,0.73340379
1511.00000000,0.73970261
1512.00000000,0.73636732
1513.00000000,0.74229079
1514.00000000,0.73816772
1515.00000000,0.74466749
1516.00000000,0.73964289
1517.00000000,0.74434494
1518.00000000,0.73336678
1519.00000000,0.73640327
1520.00000000,0.72928223
1521.00000000,0.73299284
1522.00000000,0.72408742
1523.00000000,0.72556669
1524.00000000,0.71850918
1525.00000000,0.72096399
1526.00000000,0.71520989
1527.00000000,0.71558932
1528.00000000,0.70941219
1529.00000000,0.71123244
1530.00000000,0.70200189
1531.00000000,0.70324845
1532.00000000,0.70397938
1533.00000000,0.70460730
1534.00000000,0.69976000
1535.00000000,0.70143747
1536.00000000,0.70123786
1537.00000000,0.70354188
1538.00000000,0.69880562
1539.00000000,0.70091138
1540.00000000,0.70220281
1541.00000000,0.70618033
1542.00000000,0.70002183
1543.00000000,0.69827565
1544.00000000,0.69103321
1545.00000000,0.69106621
1546.00000000,0.68775762
1547.00000000,0.68109681
1548.00000000,0.67683127
1549.00000000,0.67797983
1550.00000000,0.66462521
1551.00000000,0.64930081
1552.00000000,0.64351794
1553.00000000,0.64109214
1554.00000000,0.63590668
1555.00000000,0.62594098
1556.00000000,0.62027974
1557.00000000,0.62064291
1558.00000000,0.62954593
1559.00000000,0.63252649
1560.00000000,0.62272523
1561.00000000,0.61610636
1562.00000000,0.61714434
1563.00000000,0.61715059
1564.00000000,0.62002852
1565.00000000,0.61655576
1566.00000000,0.61248077
1567.00000000,0.60966622
1568.00000000,0.60113138
1569.00000000,0.58842928
1570.00000000,0.58574240
1571.00000000,0.58062769
1572.00000000,0.57389601
1573.00000000,0.56293332
1574.00000000,0.55426917
1575.00000000,0.54462305
1576.00000000,0.54728719
1577.00000000,0.54636781
1578.00000000,0.53186109
1579.00000000,0.51652031
1580.00000000,0.52480771
1581.00000000,0.51355932
1582.00000000,0.50060724
1583.00000000,0.48944345
1584.00000000,0.48687859
1585.00000000,0.48266495
1586.00000000,0.48138763
1587.00000000,0.47300484
1588.00000000,0.47559792
1589.00000000,0.48219436
1590.00000000,0.48525266
1591.00000000,0.47773700
1592.00000000,0.47122785
1593.00000000,0.46219462
1594.00000000,0.45295979
1595.00000000,0.44486769
1596.00000000,0.44619727
1597.00000000,0.43544559
1598.00000000,0.43147187
1599.00000000,0.41777765
1600.00000000,0.40811205
1601.00000000,0.40534688
1602.00000000,0.41013193
1603.00000000,0.39788105
1604.00000000,0.38782433
1605.00000000,0.37929837
1606.00000000,0.37243268
1607.00000000,0.36646048
1608.00000000,0.36572556
1609.00000000,0.35876990
1610.00000000,0.35599677
1611.00000000,0.34765045
1612.00000000,0.34405512
1613.00000000,0.33866975
1614.00000000,0.33709165
1615.00000000,0.33330833
1616.00000000,0.33376847
1617.00000000,0.32806839
1618.00000000,0.32358758
1619.00000000,0.31491866
1620.00000000,0.30991700
1621.00000000,0.30202261
1622.00000000,0.29928672
1623.00000000,0.29187864
1624.00000000,0.28539131
1625.00000000,0.27522322
1626.00000000,0.26966137
1627.00000000,0.26181438
1628.00000000,0.25978447
1629.00000000,0.25363733
1630.00000000,0.24893996
1631.00000000,0.24204463
1632.00000000,0.23843128
1633.00000000,0.23314591
1634.00000000,0.23053192
1635.00000000,0.22514604
1636.00000000,0.22328815
1637.00000000,0.21891744
1638.00000000,0.21634050
1639.00000000,0.21110525
1640.00000000,0.20750518
1641.00000000,0.20214038
1642.00000000,0.20015574
1643.00000000,0.19540162
1644.00000000,0.19160073
1645.00000000,0.18441168
1646.00000000,0.18076949
1647.00000000,0.17510844
1648.00000000,0.17097723
1649.00000000,0.16526596
1650.00000000,0.16198336
1651.00000000,0.15478361
1652.00000000,0.15062337
1653.00000000,0.14650879
1654.00000000,0.14402731
1655.00000000,0.13879174
1656.00000000,0.13448614
1657.00000000,0.12981370
1658.00000000,0.12724772
1659.00000000,0.12456858
1660.00000000,0.12424977
1661.00000000,0.12152833
1662.00000000,0.11829349
1663.00000000,0.11488466
1664.00000000,0.11274702
1665.00000000,0.10927999
1666.00000000,0.10711065
1667.00000000,0.10291131
1668.00000000,0.10038245
1669.00000000,0.09605878
1670.00000000,0.09345854
1671.00000000,0.09029019
1672.00000000,0.08798612
1673.00000000,0.08456923
1674.00000000,0.08185273
1675.00000000,0.07795731
1676.00000000,0.07525670
1677.00000000,0.07184504
1678.00000000,0.06946171
1679.00000000,0.06674264
1680.00000000,0.06459462
1681.00000000,0.06184649
1682.00000000,0.06052861
1683.00000000,0.05870049
1684.00000000,0.05694638
1685.00000000,0.05460004
1686.00000000,0.05301519
1687.00000000,0.05101252
1688.00000000,0.04939860
1689.00000000,0.04756513
1690.00000000,0.04582432
1691.00000000,0.04359429
1692.00000000,0.04210466
1693.00000000,0.04033458
1694.00000000,0.03871803
1695.00000000,0.03688717
1696.00000000,0.03518343
1697.00000000,0.03319393
1698.00000000,0.03165673
1699.00000000,0.03002673
1700.00000000,0.02846047
1701.00000000,0.02691508
1702.00000000,0.02562642
1703.00000000,0.02419470
1704.00000000,0.02283734
1705.00000000,0.02184710
1706.00000000,0.02063247
1707.00000000,0.01966868
1708.00000000,0.01852017
1709.00000000,0.01764360
1710.00000000,0.01662201
1711.00000000,0.01573220
1712.00000000,0.01468946
1713.00000000,0.01388424
1714.00000000,0.01288645
1715.00000000,0.01217637
1716.00000000,0.01128434
1717.00000000,0.01061925
1718.00000000,0.00965056
1719.00000000,0.00915992
1720.00000000,0.00847938
1721.00000000,0.00790944
1722.00000000,0.00707824
1723.00000000,0.00658493
1724.00000000,0.00583569
1725.00000000,0.00554597
1726.00000000,0.00498442
1727.00000000,0.00463917
1728.00000000,0.00409878
1729.00000000,0.00380641
1730.00000000,0.00337969
1731.00000000,0.00317719
1732.00000000,0.00282716
1733.00000000,0.00266697
1734.00000000,0.00227198
1735.00000000,0.00219637
1736.00000000,0.00208691
1737.00000000,0.00192673
1738.00000000,0.00174350
1739.00000000,0.00167821
1740.00000000,0.00149368
1741.00000000,0.00147993
1742.00000000,0.00142864
1743.00000000,0.00147730
1744.00000000,0.00150002
1745.00000000,0.00153808
1746.00000000,0.00164541
1747.00000000,0.00178792
1748.00000000,0.00181963
1749.00000000,0.00194521
1750.00000000,0.00212658
1751.00000000,0.00238145
1752.00000000,0.00250727
1753.00000000,0.00266697
1754.00000000,0.00292498
1755.00000000,0.00313225
1756.00000000,0.00339291
1757.00000000,0.00358168
1758.00000000,0.00377889
1759.00000000,0.00417123
1760.00000000,0.00455349
1761.00000000,0.00487710
1762.00000000,0.00512982
1763.00000000,0.00551953
1764.00000000,0.00594937
1765.00000000,0.00631528
1766.00000000,0.00656535
1767.00000000,0.00700000
1768.00000000,0.00732939
1769.00000000,0.00773496
1770.00000000,0.00812513
1771.00000000,0.00859945
1772.00000000,0.00892088
1773.00000000,0.00942955
1774.00000000,0.00990435
1775.00000000,0.01026500
1776.00000000,0.01044102
1777.00000000,0.01103962
1778.00000000,0.01151174
1779.00000000,0.01213410
1780.00000000,0.01258770
1781.00000000,0.01303824
1782.00000000,0.01329092
1783.00000000,0.01387101
1784.00000000,0.01418714
1785.00000000,0.01465620
1786.00000000,0.01513623
1787.00000000,0.01578242
1788.00000000,0.01600866
1789.00000000,0.01644335
1790.00000000,0.01677003
1791.00000000,0.01733427
1792.00000000,0.01763718
1793.00000000,0.01825960
1794.00000000,0.01861535
1795.00000000,0.01919017
1796.00000000,0.01947456
1797.00000000,0.02001501
1798.00000000,0.02039457
1799.00000000,0.02077374
1800.00000000,0.02096558
1801.00000000,0.02171493
1802.00000000,0.02195435
1803.00000000,0.02245779
1804.00000000,0.02271835
1805.00000000,0.02327469
1806.00000000,0.02349032
1807.00000000,0.02382195
1808.00000000,0.02407725
1809.00000000,0.02459392
1810.00000000,0.02476988
1811.00000000,0.02512793
1812.00000000,0.02539116
1813.00000000,0.02605852
1814.00000000,0.02607057
1815.00000000,0.02629912
1816.00000000,0.02661519
1817.00000000,0.02707373
1818.00000000,0.02708313
1819.00000000,0.02734339
1820.00000000,0.02739246
1821.00000000,0.02783249
1822.00000000,0.02801109
1823.00000000,0.02837708
1824.00000000,0.02850279
1825.00000000,0.02905916
1826.00000000,0.02930121
1827.00000000,0.02964078
1828.00000000,0.02963430
1829.00000000,0.02986813
1830.00000000,0.02988808
1831.00000000,0.02995009
1832.00000000,0.03003350
1833.00000000,0.03032285
1834.00000000,0.03027408
1835.00000000,0.03036515
1836.00000000,0.03028729
1837.00000000,0.03032021
1838.00000000,0.03009692
1839.00000000,0.03023294
1840.00000000,0.03030315
1841.00000000,0.03058459
1842.00000000,0.03066800
1843.00000000,0.03078286
1844.00000000,0.03054371
1845.00000000,0.03071675
1846.00000000,0.03080018
1847.00000000,0.03110010
1848.00000000,0.03084776
1849.00000000,0.03093093
1850.00000000,0.03091122
1851.00000000,0.03090712
1852.00000000,0.03064949
1853.00000000,0.03041802
1854.00000000,0.03002293
1855.00000000,0.02995538
1856.00000000,0.02975856
1857.00000000,0.02987871
1858.00000000,0.02961581
1859.00000000,0.02961964
1860.00000000,0.02922982
1861.00000000,0.02906706
1862.00000000,0.02888347
1863.00000000,0.02889525
1864.00000000,0.02876452
1865.00000000,0.02884236
1866.00000000,0.02845784
1867.00000000,0.02859915
1868.00000000,0.02832833
1869.00000000,0.02803605
1870.00000000,0.02775463
1871.00000000,0.02756280
1872.00000000,0.02681082
1873.00000000,0.02632819
1874.00000000,0.02588023
1875.00000000,0.02576243
1876.00000000,0.02541758
1877.00000000,0.02529716
1878.00000000,0.02491795
1879.00000000,0.02513059
1880.00000000,0.02522196
1881.00000000,0.02463623
1882.00000000,0.02388689
1883.00000000,0.02397002
1884.00000000,0.02377059
1885.00000000,0.02378760
1886.00000000,0.02324446
1887.00000000,0.02303677
1888.00000000,0.02273422
1889.00000000,0.02267191
1890.00000000,0.02220813
1891.00000000,0.02196078
1892.00000000,0.02167410
1893.00000000,0.02145583
1894.00000000,0.02086250
1895.00000000,0.02069444
1896.00000000,0.02021213
1897.00000000,0.01979293
1898.00000000,0.01908592
1899.00000000,0.01897339
1900.00000000,0.01856777
1901.00000000,0.01831774
1902.00000000,0.01773764
1903.00000000,0.01763301
1904.00000000,0.01702912
1905.00000000,0.01681084
1906.00000000,0.01693132
1907.00000000,0.01675531
1908.00000000,0.01550901
1909.00000000,0.01480426
1910.00000000,0.01449647
1911.00000000,0.01451080
1912.00000000,0.01388578
1913.00000000,0.01365160
1914.00000000,0.01339669
1915.00000000,0.01366482
1916.00000000,0.01357117
1917.00000000,0.01324183
1918.00000000,0.01229161
1919.00000000,0.01220283
1920.00000000,0.01169944
1921.00000000,0.01137800
1922.00000000,0.01100677
1923.00000000,0.01082016
1924.00000000,0.01053089
1925.00000000,0.01034959
1926.00000000,0.00981710
1927.00000000,0.00976532
1928.00000000,0.00943905
1929.00000000,0.00925510
1930.00000000,0.00875698
1931.00000000,0.00865232
1932.00000000,0.00824674
1933.00000000,0.00803634
1934.00000000,0.00758848
1935.00000000,0.00746795
1936.00000000,0.00714431
1937.00000000,0.00701851
1938.00000000,0.00659179
1939.00000000,0.00641573
1940.00000000,0.00604451
1941.00000000,0.00591078
1942.00000000,0.00551578
1943.00000000,0.00536089
1944.00000000,0.00503464
1945.00000000,0.00497492
1946.00000000,0.00461960
1947.00000000,0.00453344
1948.00000000,0.00432085
1949.00000000,0.00418709
1950.00000000,0.00390049
1951.00000000,0.00393065
1952.00000000,0.00358062
1953.00000000,0.00344157
1954.00000000,0.00327394
1955.00000000,0.00319041
1956.00000000,0.00292231
1957.00000000,0.00285730
1958.00000000,0.00258921
1959.00000000,0.00254798
1960.00000000,0.00236714
1961.00000000,0.00231798
1962.00000000,0.00209750
1963.00000000,0.00200867
1964.00000000,0.00187805
1965.00000000,0.00188177
1966.00000000,0.00171415
1967.00000000,0.00171522
1968.00000000,0.00158462
1969.00000000,0.00150637
1970.00000000,0.00143922
1971.00000000,0.00143339
1972.00000000,0.00128296
1973.00000000,0.00130438
1974.00000000,0.00123036
1975.00000000,0.00119758
1976.00000000,0.00111615
1977.00000000,0.00120102
1978.00000000,0.00107200
1979.00000000,0.00104293
1980.00000000,0.00102442
1981.00000000,0.00101226
1982.00000000,0.00115395
1983.00000000,0.00114972
1984.00000000,0.00100379
1985.00000000,0.00104187
1986.00000000,0.00101860
1987.00000000,0.00105879
1988.00000000,0.00116612
1989.00000000,0.00125098
1990.00000000,0.00119811
1991.00000000,0.00119839
1992.00000000,0.00129937
1993.00000000,0.00131867
1994.00000000,0.00132369
1995.00000000,0.00142707
1996.00000000,0.00149922
1997.00000000,0.00159627
1998.00000000,0.00167186
1999.00000000,0.00174165
2000.00000000,0.00175380
2001.00000000,0.00185269
2002.00000000,0.00199967
2003.00000000,0.00205626
2004.00000000,0.00217680
2005.00000000,0.00228362
2006.00000000,0.00240151
2007.00000000,0.00253741
2008.00000000,0.00253900
2009.00000000,0.00262466
2010.00000000,0.00279544
2011.00000000,0.00291547
2012.00000000,0.00298577
2013.00000000,0.00321156
2014.00000000,0.00334268
2015.00000000,0.00347593
2016.00000000,0.00361498
2017.00000000,0.00371651
2018.00000000,0.00379476
2019.00000000,0.00397824
2020.00000000,0.00409349
2021.00000000,0.00425849
2022.00000000,0.00433672
2023.00000000,0.00448583
2024.00000000,0.00454028
2025.00000000,0.00466297
2026.00000000,0.00475177
2027.00000000,0.00488768
2028.00000000,0.00511395
2029.00000000,0.00539527
2030.00000000,0.00544177
2031.00000000,0.00562528
2032.00000000,0.00560305
2033.00000000,0.00568344
2034.00000000,0.00586213
2035.00000000,0.00610114
2036.00000000,0.00619786
2037.00000000,0.00649240
2038.00000000,0.00652834
2039.00000000,0.00659287
2040.00000000,0.00677419
2041.00000000,0.00708195
2042.00000000,0.00705708
2043.00000000,0.00727230
2044.00000000,0.00721041
2045.00000000,0.00729611
2046.00000000,0.00732674
2047.00000000,0.00768209
2048.00000000,0.00766513
2049.00000000,0.00779047
2050.00000000,0.00784752
2051.00000000,0.00797817
2052.00000000,0.00805904
2053.00000000,0.00831129
2054.00000000,0.00833400
2055.00000000,0.00855188
2056.00000000,0.00863008
2057.00000000,0.00882151
2058.00000000,0.00866445
2059.00000000,0.00886647
2060.00000000,0.00890768
2061.00000000,0.00891935
2062.00000000,0.00898700
2063.00000000,0.00931325
2064.00000000,0.00927777
2065.00000000,0.00947979
2066.00000000,0.00940468
2067.00000000,0.00945602
2068.00000000,0.00938090
2069.00000000,0.00961729
2070.00000000,0.00950252
2071.00000000,0.00969132
2072.00000000,0.00968493
2073.00000000,0.00989487
2074.00000000,0.00985940
2075.00000000,0.01006936
2076.00000000,0.01007354
2077.00000000,0.01020418
2078.00000000,0.01015022
2079.00000000,0.01031258
2080.00000000,0.01017401
2081.00000000,0.01028350
2082.00000000,0.01036435
2083.00000000,0.01046592
2084.00000000,0.01027447
2085.00000000,0.01036014
2086.00000000,0.01014490
2087.00000000,0.01032843
2088.00000000,0.01029560
2089.00000000,0.01044213
2090.00000000,0.01032735
2091.00000000,0.01031258
2092.00000000,0.01013170
2093.00000000,0.01051350
2094.00000000,0.01030884
2095.00000000,0.00993453
2096.00000000,0.00954481
2097.00000000,0.00981028
2098.00000000,0.00949458
2099.00000000,0.00934233
2100.00000000,0.00899227
2101.00000000,0.00917050
2102.00000000,0.00958445
2103.00000000,0.01010637
2104.00000000,0.01009470
2105.00000000,0.00992395
2106.00000000,0.00991757
2107.00000000,0.01012488
2108.00000000,0.00973252
2109.00000000,0.00953796
2110.00000000,0.00901604
2111.00000000,0.00914670
2112.00000000,0.00878078
2113.00000000,0.00883473
2114.00000000,0.00865122
2115.00000000,0.00890083
2116.00000000,0.00923283
2117.00000000,0.00949301
2118.00000000,0.00911652
2119.00000000,0.00894843
2120.00000000,0.00885482
2121.00000000,0.00899073
2122.00000000,0.00872261
2123.00000000,0.00873427
2124.00000000,0.00845559
2125.00000000,0.00834564
2126.00000000,0.00803523
2127.00000000,0.00807333
2128.00000000,0.00786869
2129.00000000,0.00789358
2130.00000000,0.00766248
2131.00000000,0.00762128
2132.00000000,0.00737961
2133.00000000,0.00753402
2134.00000000,0.00733201
2135.00000000,0.00724322
2136.00000000,0.00700686
2137.00000000,0.00715071
2138.00000000,0.00699892
2139.00000000,0.00701851
2140.00000000,0.00688525
2141.00000000,0.00693920
2142.00000000,0.00657856
2143.00000000,0.00637079
2144.00000000,0.00615556
2145.00000000,0.00622010
2146.00000000,0.00591500
2147.00000000,0.00585264
2148.00000000,0.00555281
2149.00000000,0.00556183
2150.00000000,0.00535717
2151.00000000,0.00532652
2152.00000000,0.00516948
2153.00000000,0.00522873
2154.00000000,0.00500557
2155.00000000,0.00496435
2156.00000000,0.00471211
2157.00000000,0.00474756
2158.00000000,0.00473061
2159.00000000,0.00464179
2160.00000000,0.00432349
2161.00000000,0.00438273
2162.00000000,0.00415429
2163.00000000,0.00410249
2164.00000000,0.00387143
2165.00000000,0.00382756
2166.00000000,0.00356210
2167.00000000,0.00348121
2168.00000000,0.00331624
2169.00000000,0.00327766
2170.00000000,0.00308623
2171.00000000,0.00311640
2172.00000000,0.00295934
2173.00000000,0.00298420
2174.00000000,0.00284301
2175.00000000,0.00275684
2176.00000000,0.00259450
2177.00000000,0.00259028
2178.00000000,0.00247290
2179.00000000,0.00253213
2180.00000000,0.00245439
2181.00000000,0.00248720
2182.00000000,0.00221910
2183.00000000,0.00205890
2184.00000000,0.00185691
2185.00000000,0.00186855
2186.00000000,0.00175911
2187.00000000,0.00175752
2188.00000000,0.00167450
2189.00000000,0.00159361
2190.00000000,0.00151350
2191.00000000,0.00160947
2192.00000000,0.00144555
2193.00000000,0.00142547
2194.00000000,0.00127267
2195.00000000,0.00127374
2196.00000000,0.00122111
2197.00000000,0.00119547
2198.00000000,0.00114814
2199.00000000,0.00121556
2200.00000000,0.00112435
2201.00000000,0.00104954
2202.00000000,0.00098185
2203.00000000,0.00094035
2204.00000000,0.00089515
2205.00000000,0.00094432
2206.00000000,0.00081663
2207.00000000,0.00080737
2208.00000000,0.00073519
2209.00000000,0.00078939
2210.00000000,0.00076744
2211.00000000,0.00072304
2212.00000000,0.00070771
2213.00000000,0.00075529
2214.00000000,0.00067624
2215.00000000,0.00063262
2216.00000000,0.00064874
2217.00000000,0.00072410
2218.00000000,0.00081028
2219.00000000,0.00085549
2220.00000000,0.00074286
2221.00000000,0.00070956
2222.00000000,0.00073837
2223.00000000,0.00080051
2224.00000000,0.00077195
2225.00000000,0.00084200
2226.00000000,0.00087187
2227.00000000,0.00089885
2228.00000000,0.00085523
2229.00000000,0.00080658
2230.00000000,0.00085760
2231.00000000,0.00098740
2232.00000000,0.00099532
2233.00000000,0.00097445
2234.00000000,0.00098158
2235.00000000,0.00105455
2236.00000000,0.00106432
2237.00000000,0.00110531
2238.00000000,0.00117218
2239.00000000,0.00121582
2240.00000000,0.00127979
2241.00000000,0.00134775
2242.00000000,0.00136041
2243.00000000,0.00142123
2244.00000000,0.00151589
2245.00000000,0.00153545
2246.00000000,0.00148416
2247.00000000,0.00155395
2248.00000000,0.00163749
2249.00000000,0.00173901
2250.00000000,0.00170622
2251.00000000,0.00174693
2252.00000000,0.00176280
2253.00000000,0.00183789
2254.00000000,0.00198116
2255.00000000,0.00207477
2256.00000000,0.00211864
2257.00000000,0.00217523
2258.00000000,0.00218474
2259.00000000,0.00218845
2260.00000000,0.00221646
2261.00000000,0.00243168
2262.00000000,0.00247291
2263.00000000,0.00248456
2264.00000000,0.00243060
2265.00000000,0.00251891
2266.00000000,0.00266061
2267.00000000,0.00265902
2268.00000000,0.00259979
2269.00000000,0.00265374
2270.00000000,0.00277164
2271.00000000,0.00296042
2272.00000000,0.00303866
2273.00000000,0.00315077
2274.00000000,0.00311004
2275.00000000,0.00315869
2276.00000000,0.00317349
2277.00000000,0.00327766
2278.00000000,0.00333209
2279.00000000,0.00336489
2280.00000000,0.00334532
2281.00000000,0.00344157
2282.00000000,0.00342199
2283.00000000,0.00362134
2284.00000000,0.00360176
2285.00000000,0.00368744
2286.00000000,0.00367050
2287.00000000,0.00376409
2288.00000000,0.00379211
2289.00000000,0.00387778
2290.00000000,0.00386613
2291.00000000,0.00402053
2292.00000000,0.00400096
2293.00000000,0.00413687
2294.00000000,0.00418866
2295.00000000,0.00422674
2296.00000000,0.00411199
2297.00000000,0.00420295
2298.00000000,0.00420188
2299.00000000,0.00430342
2300.00000000,0.00417809
2301.00000000,0.00427435
2302.00000000,0.00424947
2303.00000000,0.00434042
2304.00000000,0.00432877
2305.00000000,0.00439066
2306.00000000,0.00432348
2307.00000000,0.00444089
2308.00000000,0.00441603
2309.00000000,0.00456251
2310.00000000,0.00455349
2311.00000000,0.00459422
2312.00000000,0.00463280
2313.00000000,0.00471848
2314.00000000,0.00460372
2315.00000000,0.00470261
2316.00000000,0.00465395
2317.00000000,0.00472907
2318.00000000,0.00463018
2319.00000000,0.00463390
2320.00000000,0.00460373
2321.00000000,0.00474228
2322.00000000,0.00474120
2323.00000000,0.00482424
2324.00000000,0.00464339
2325.00000000,0.00474229
2326.00000000,0.00469096
2327.00000000,0.00477664
2328.00000000,0.00470682
2329.00000000,0.00485067
2330.00000000,0.00476763
2331.00000000,0.00475814
2332.00000000,0.00464337
2333.00000000,0.00472641
2334.00000000,0.00459051
2335.00000000,0.00464710
2336.00000000,0.00457464
2337.00000000,0.00467089
2338.00000000,0.00457994
2339.00000000,0.00455985
2340.00000000,0.00435522
2341.00000000,0.00444883
2342.00000000,0.00431557
2343.00000000,0.00435893
2344.00000000,0.00432084
2345.00000000,0.00448583
2346.00000000,0.00440544
2347.00000000,0.00446204
2348.00000000,0.00439487
2349.00000000,0.00441182
2350.00000000,0.00438429
2351.00000000,0.00445412
2352.00000000,0.00423096
2353.00000000,0.00422674
2354.00000000,0.00408291
2355.00000000,0.00416594
2356.00000000,0.00404589
2357.00000000,0.00400467
2358.00000000,0.00374981
2359.00000000,0.00379848
2360.00000000,0.00374981
2361.00000000,0.00385664
2362.00000000,0.00374452
2363.00000000,0.00380640
2364.00000000,0.00381325
2365.00000000,0.00381432
2366.00000000,0.00363877
2367.00000000,0.00367422
2368.00000000,0.00358590
2369.00000000,0.00364250
2370.00000000,0.00339555
2371.00000000,0.00343893
2372.00000000,0.00331097
2373.00000000,0.00329881
2374.00000000,0.00321577
2375.00000000,0.00319041
2376.00000000,0.00310475
2377.00000000,0.00317456
2378.00000000,0.00304659
2379.00000000,0.00303973
2380.00000000,0.00290647
2381.00000000,0.00290224
2382.00000000,0.00272140
2383.00000000,0.00277005
2384.00000000,0.00270555
2385.00000000,0.00270397
2386.00000000,0.00257072
2387.00000000,0.00260880
2388.00000000,0.00266323
2389.00000000,0.00266959
2390.00000000,0.00245967
2391.00000000,0.00243167
2392.00000000,0.00237510
2393.00000000,0.00237617
2394.00000000,0.00226141
2395.00000000,0.00228627
2396.00000000,0.00212658
2397.00000000,0.00220960
2398.00000000,0.00220325
2399.00000000,0.00216994
2400.00000000,0.00201553
2401.00000000,0.00200603
2402.00000000,0.00185427
2403.00000000,0.00186856
2404.00000000,0.00176174
2405.00000000,0.00169408
2406.00000000,0.00163221
2407.00000000,0.00168086
2408.00000000,0.00166657
2409.00000000,0.00164913
2410.00000000,0.00154761
2411.00000000,0.00153544
2412.00000000,0.00146564
2413.00000000,0.00153016
2414.00000000,0.00146300
2415.00000000,0.00150662
2416.00000000,0.00134403
2417.00000000,0.00135171
2418.00000000,0.00130175
2419.00000000,0.00122402
2420.00000000,0.00114075
2421.00000000,0.00117036
2422.00000000,0.00110743
2423.00000000,0.00111114
2424.00000000,0.00107491
2425.00000000,0.00102575
2426.00000000,0.00101436
2427.00000000,0.00101570
2428.00000000,0.00088483
2429.00000000,0.00081662
2430.00000000,0.00079441
2431.00000000,0.00085601
2432.00000000,0.00081502
2433.00000000,0.00077300
2434.00000000,0.00074287
2435.00000000,0.00079813
2436.00000000,0.00079389
2437.00000000,0.00081266
2438.00000000,0.00076190
2439.00000000,0.00075476
2440.00000000,0.00078780
2441.00000000,0.00079020
2442.00000000,0.00075952
2443.00000000,0.00075477
2444.00000000,0.00075925
2445.00000000,0.00075688
2446.00000000,0.00065509
2447.00000000,0.00062787
2448.00000000,0.00062284
2449.00000000,0.00057710
2450.00000000,0.00062733
2451.00000000,0.00072277
2452.00000000,0.00075607
2453.00000000,0.00078569
2454.00000000,0.00076745
2455.00000000,0.00073600
2456.00000000,0.00070242
2457.00000000,0.00075000
2458.00000000,0.00068312
2459.00000000,0.00062549
2460.00000000,0.00066408
2461.00000000,0.00071141
2462.00000000,0.00069158
2463.00000000,0.00069475
2464.00000000,0.00073044
2465.00000000,0.00078728
2466.00000000,0.00077934
2467.00000000,0.00080683
2468.00000000,0.00080155
2469.00000000,0.00081636
2470.00000000,0.00081449
2471.00000000,0.00078093
2472.00000000,0.00076957
2473.00000000,0.00085443
2474.00000000,0.00096625
2475.00000000,0.00089330
2476.00000000,0.00086104
2477.00000000,0.00089144
2478.00000000,0.00084993
2479.00000000,0.00098794
2480.00000000,0.00110505
2481.00000000,0.00102839
2482.00000000,0.00099083
2483.00000000,0.00107253
2484.00000000,0.00107517
2485.00000000,0.00108417
2486.00000000,0.00116268
2487.00000000,0.00121292
2488.00000000,0.00125046
2489.00000000,0.00125891
2490.00000000,0.00122427
2491.00000000,0.00124807
2492.00000000,0.00121450
2493.00000000,0.00133188
2494.00000000,0.00135463
2495.00000000,0.00133586
2496.00000000,0.00138899
2497.00000000,0.00145218
2498.00000000,0.00140959
2499.00000000,0.00145640
2500.00000000,0.00150265
2501.00000000,0.00143499
2502.00000000,0.00136016
2503.00000000,0.00147200
2504.00000000,0.00161634
2505.00000000,0.00166499
2506.00000000,0.00157140
2507.00000000,0.00159097
2508.00000000,0.00158197
2509.00000000,0.00164913
2510.00000000,0.00172208
2511.00000000,0.00178660
2512.00000000,0.00174058
2513.00000000,0.00169750
2514.00000000,0.00176173
2515.00000000,0.00185797
2516.00000000,0.00185955
2517.00000000,0.00192935
2518.00000000,0.00188863
2519.00000000,0.00196108
2520.00000000,0.00199968
2521.00000000,0.00210649
2522.00000000,0.00201553
2523.00000000,0.00200867
2524.00000000,0.00207898
2525.00000000,0.00210912
2526.00000000,0.00206313
2527.00000000,0.00214086
2528.00000000,0.00214505
2529.00000000,0.00216728
2530.00000000,0.00214508
2531.00000000,0.00224396
2532.00000000,0.00224287
2533.00000000,0.00222808
2534.00000000,0.00222703
2535.00000000,0.00229685
2536.00000000,0.00224290
2537.00000000,0.00225718
2538.00000000,0.00219531
2539.00000000,0.00222547
2540.00000000,0.00230635
2541.00000000,0.00237085
2542.00000000,0.00230899
2543.00000000,0.00235500
2544.00000000,0.00226402
2545.00000000,0.00231005
2546.00000000,0.00229577
2547.00000000,0.00236557
2548.00000000,0.00247157
2549.00000000,0.00249565
2550.00000000,0.00247819
2551.00000000,0.00253477
2552.00000000,0.00235128
2553.00000000,0.00242374
2554.00000000,0.00246762
2555.00000000,0.00248191
2556.00000000,0.00240945
2557.00000000,0.00247397
2558.00000000,0.00237772
2559.00000000,0.00236294
2560.00000000,0.00236980
2561.00000000,0.00252950
2562.00000000,0.00251519
2563.00000000,0.00253740
2564.00000000,0.00251783
2565.00000000,0.00247661
2566.00000000,0.00243853
2567.00000000,0.00256914
2568.00000000,0.00247819
2569.00000000,0.00250305
2570.00000000,0.00244117
2571.00000000,0.00247396
2572.00000000,0.00243061
2573.00000000,0.00240788
2574.00000000,0.00232749
2575.00000000,0.00242110
2576.00000000,0.00243853
2577.00000000,0.00243695
2578.00000000,0.00234600
2579.00000000,0.00242638
2580.00000000,0.00239887
2581.00000000,0.00238408
2582.00000000,0.00240152
2583.00000000,0.00244753
2584.00000000,0.00244117
2585.00000000,0.00243960
2586.00000000,0.00225877
2587.00000000,0.00239994
2588.00000000,0.00231427
2589.00000000,0.00225454
2590.00000000,0.00210015
2591.00000000,0.00205893
2592.00000000,0.00206313
2593.00000000,0.00212763
2594.00000000,0.00200494
2595.00000000,0.00207476
2596.00000000,0.00218474
2597.00000000,0.00228628
2598.00000000,0.00216359
2599.00000000,0.00215143
2600.00000000,0.00203140
2601.00000000,0.00199544
2602.00000000,0.00191243
2603.00000000,0.00191879
2604.00000000,0.00196002
2605.00000000,0.00194786
2606.00000000,0.00173265
2607.00000000,0.00176281
2608.00000000,0.00177496
2609.00000000,0.00181568
2610.00000000,0.00171416
2611.00000000,0.00175752
2612.00000000,0.00170888
2613.00000000,0.00167451
2614.00000000,0.00171891
2615.00000000,0.00175224
2616.00000000,0.00164277
2617.00000000,0.00166234
2618.00000000,0.00173451
2619.00000000,0.00175223
2620.00000000,0.00157140
2621.00000000,0.00156004
2622.00000000,0.00147121
2623.00000000,0.00144424
2624.00000000,0.00134430
2625.00000000,0.00135542
2626.00000000,0.00122270
2627.00000000,0.00130148
2628.00000000,0.00136571
2629.00000000,0.00137339
2630.00000000,0.00121184
2631.00000000,0.00120498
2632.00000000,0.00121238
2633.00000000,0.00128166
2634.00000000,0.00124358
2635.00000000,0.00126871
2636.00000000,0.00123142
2637.00000000,0.00117247
2638.00000000,0.00108125
2639.00000000,0.00108787
2640.00000000,0.00107386
2641.00000000,0.00106645
2642.00000000,0.00092290
2643.00000000,0.00096310
2644.00000000,0.00104055
2645.00000000,0.00104478
2646.00000000,0.00097948
2647.00000000,0.00099534
2648.00000000,0.00100591
2649.00000000,0.00096996
2650.00000000,0.00085971
2651.00000000,0.00084914
2652.00000000,0.00084569
2653.00000000,0.00088378
2654.00000000,0.00084280
2655.00000000,0.00080949
2656.00000000,0.00079681
2657.00000000,0.00079364
2658.00000000,0.00071643
2659.00000000,0.00073255
2660.00000000,0.00070769
2661.00000000,0.00076322
2662.00000000,0.00073546
2663.00000000,0.00071034
2664.00000000,0.00069501
2665.00000000,0.00069846
2666.00000000,0.00067439
2667.00000000,0.00062020
2668.00000000,0.00056229
2669.00000000,0.00059191
2670.00000000,0.00069369
2671.00000000,0.00070585
2672.00000000,0.00062600
2673.00000000,0.00063341
2674.00000000,0.00066567
2675.00000000,0.00070480
2676.00000000,0.00062257
2677.00000000,0.00058848
2678.00000000,0.00062153
2679.00000000,0.00059641
2680.00000000,0.00059958
2681.00000000,0.00063687
2682.00000000,0.00062337
2683.00000000,0.00065880
2684.00000000,0.00064663
2685.00000000,0.00065641
2686.00000000,0.00063420
2687.00000000,0.00066883
2688.00000000,0.00064346
2689.00000000,0.00063131
2690.00000000,0.00054195
2691.00000000,0.00062840
2692.00000000,0.00068972
2693.00000000,0.00065773
2694.00000000,0.00064583
2695.00000000,0.00062786
2696.00000000,0.00064292
2697.00000000,0.00072357
2698.00000000,0.00077934
2699.00000000,0.00073229
2700.00000000,0.00069660
2701.00000000,0.00068470
2702.00000000,0.00062416
2703.00000000,0.00061861
2704.00000000,0.00067967
2705.00000000,0.00075344
2706.00000000,0.00080736
2707.00000000,0.00077987
2708.00000000,0.00070267
2709.00000000,0.00070480
2710.00000000,0.00071906
2711.00000000,0.00080181
2712.00000000,0.00087503
2713.00000000,0.00097260
2714.00000000,0.00086262
2715.00000000,0.00080077
2716.00000000,0.00086923
2717.00000000,0.00086580
2718.00000000,0.00089250
2719.00000000,0.00096970
2720.00000000,0.00093797
2721.00000000,0.00088219
2722.00000000,0.00086395
2723.00000000,0.00090308
2724.00000000,0.00093242
2725.00000000,0.00090916
2726.00000000,0.00087795
2727.00000000,0.00091260
2728.00000000,0.00096149
2729.00000000,0.00101595
2730.00000000,0.00098608
2731.00000000,0.00102786
2732.00000000,0.00101834
2733.00000000,0.00096495
2734.00000000,0.00101913
2735.00000000,0.00110505
2736.00000000,0.00106011
2737.00000000,0.00103076
2738.00000000,0.00098395
2739.00000000,0.00108627
2740.00000000,0.00105772
2741.00000000,0.00103897
2742.00000000,0.00114498
2743.00000000,0.00117855
2744.00000000,0.00113414
2745.00000000,0.00107519
2746.00000000,0.00104478
2747.00000000,0.00118278
2748.00000000,0.00116691
2749.00000000,0.00111880
2750.00000000,0.00109552
2751.00000000,0.00110980
2752.00000000,0.00111959
2753.00000000,0.00118146
2754.00000000,0.00126130
2755.00000000,0.00129012
2756.00000000,0.00118464
2757.00000000,0.00116455
2758.00000000,0.00103262
2759.00000000,0.00117988
2760.00000000,0.00135991
2761.00000000,0.00133982
2762.00000000,0.00109130
2763.00000000,0.00101912
2764.00000000,0.00102177
2765.00000000,0.00110981
2766.00000000,0.00107465
2767.00000000,0.00109898
2768.00000000,0.00111959
2769.00000000,0.00122481
2770.00000000,0.00147886
2771.00000000,0.00149579
2772.00000000,0.00124093
2773.00000000,0.00137419
2774.00000000,0.00137840
2775.00000000,0.00131839
2776.00000000,0.00134669
2777.00000000,0.00139797
2778.00000000,0.00132103
2779.00000000,0.00137497
2780.00000000,0.00135461
2781.00000000,0.00131074
2782.00000000,0.00145534
2783.00000000,0.00148788
2784.00000000,0.00142072
2785.00000000,0.00147755
2786.00000000,0.00139954
2787.00000000,0.00137946
2788.00000000,0.00130490
2789.00000000,0.00136388
2790.00000000,0.00134404
2791.00000000,0.00136624
2792.00000000,0.00130834
2793.00000000,0.00133189
2794.00000000,0.00141674
2795.00000000,0.00148126
2796.00000000,0.00136519
2797.00000000,0.00133982
2798.00000000,0.00132026
2799.00000000,0.00140117
2800.00000000,0.00141279
2801.00000000,0.00137155
2802.00000000,0.00130967
2803.00000000,0.00127901
2804.00000000,0.00123829
2805.00000000,0.00130015
2806.00000000,0.00125546
2807.00000000,0.00136889
2808.00000000,0.00137867
2809.00000000,0.00131867
2810.00000000,0.00123723
2811.00000000,0.00124781
2812.00000000,0.00130465
2813.00000000,0.00140063
2814.00000000,0.00133083
2815.00000000,0.00138211
2816.00000000,0.00130965
2817.00000000,0.00127372
2818.00000000,0.00121053
2819.00000000,0.00123564
2820.00000000,0.00127266
2821.00000000,0.00126051
2822.00000000,0.00120947
2823.00000000,0.00121582
2824.00000000,0.00113861
2825.00000000,0.00120816
2826.00000000,0.00113731
2827.00000000,0.00110849
2828.00000000,0.00121715
2829.00000000,0.00126898
2830.00000000,0.00117035
2831.00000000,0.00120340
2832.00000000,0.00115316
2833.00000000,0.00119071
2834.00000000,0.00116453
2835.00000000,0.00111510
2836.00000000,0.00110637
2837.00000000,0.00111748
2838.00000000,0.00105824
2839.00000000,0.00109791
2840.00000000,0.00105957
2841.00000000,0.00100460
2842.00000000,0.00102495
2843.00000000,0.00109263
2844.00000000,0.00103817
2845.00000000,0.00109712
2846.00000000,0.00106380
2847.00000000,0.00100803
2848.00000000,0.00103261
2849.00000000,0.00104160
2850.00000000,0.00100194
2851.00000000,0.00102283
2852.00000000,0.00099269
2853.00000000,0.00101676
2854.00000000,0.00094829
2855.00000000,0.00085392
2856.00000000,0.00085735
2857.00000000,0.00091075
2858.00000000,0.00079336
2859.00000000,0.00081213
2860.00000000,0.00085602
2861.00000000,0.00085919
2862.00000000,0.00085574
2863.00000000,0.00091550
2864.00000000,0.00094246
2865.00000000,0.00094644
2866.00000000,0.00089408
2867.00000000,0.00088536
2868.00000000,0.00079388
2869.00000000,0.00077274
2870.00000000,0.00075926
2871.00000000,0.00072938
2872.00000000,0.00070769
2873.00000000,0.00077776
2874.00000000,0.00081767
2875.00000000,0.00073388
2876.00000000,0.00064373
2877.00000000,0.00069237
2878.00000000,0.00063817
2879.00000000,0.00066382
2880.00000000,0.00065959
2881.00000000,0.00074948
2882.00000000,0.00078781
2883.00000000,0.00074102
2884.00000000,0.00075661
2885.00000000,0.00073810
2886.00000000,0.00066250
2887.00000000,0.00064875
2888.00000000,0.00069924
2889.00000000,0.00070215
2890.00000000,0.00063130
2891.00000000,0.00064612
2892.00000000,0.00059931
2893.00000000,0.00059456
2894.00000000,0.00059297
2895.00000000,0.00064242
2896.00000000,0.00064347
2897.00000000,0.00065906
2898.00000000,0.00060196
2899.00000000,0.00057921
2900.00000000,0.00058160
2901.00000000,0.00058636
2902.00000000,0.00057630
2903.00000000,0.00056680
2904.00000000,0.00060037
2905.00000000,0.00063448
2906.00000000,0.00056257
2907.00000000,0.00049543
2908.00000000,0.00050996
2909.00000000,0.00058635
2910.00000000,0.00056282
2911.00000000,0.00049462
2912.00000000,0.00047744
2913.00000000,0.00048617
2914.00000000,0.00042879
2915.00000000,0.00047348
2916.00000000,0.00052556
2917.00000000,0.00052978
2918.00000000,0.00053983
2919.00000000,0.00053746
2920.00000000,0.00045867
2921.00000000,0.00046210
2922.00000000,0.00047823
2923.00000000,0.00049383
2924.00000000,0.00052397
2925.00000000,0.00057579
2926.00000000,0.00052000
2927.00000000,0.00055755
2928.00000000,0.00048273
2929.00000000,0.00044519
2930.00000000,0.00055253
2931.00000000,0.00055622
2932.00000000,0.00050891
2933.00000000,0.00054935
2934.00000000,0.00049568
2935.00000000,0.00042536
2936.00000000,0.00045999
2937.00000000,0.00051393
2938.00000000,0.00055410
2939.00000000,0.00052000
2940.00000000,0.00049673
2941.00000000,0.00054935
2942.00000000,0.00057313
2943.00000000,0.00059693
2944.00000000,0.00058925
2945.00000000,0.00054114
2946.00000000,0.00050915
2947.00000000,0.00059985
2948.00000000,0.00061386
2949.00000000,0.00060514
2950.00000000,0.00060223
2951.00000000,0.00060672
2952.00000000,0.00055436
2953.00000000,0.00063234
2954.00000000,0.00068045
2955.00000000,0.00064795
2956.00000000,0.00067968
2957.00000000,0.00063871
2958.00000000,0.00059297
2959.00000000,0.00065801
2960.00000000,0.00060988
2961.00000000,0.00064373
2962.00000000,0.00071061
2963.00000000,0.00063607
2964.00000000,0.00060038
2965.00000000,0.00066938
2966.00000000,0.00075053
2967.00000000,0.00070639
2968.00000000,0.00072357
2969.00000000,0.00082060
2970.00000000,0.00077380
2971.00000000,0.00080553
2972.00000000,0.00075449
2973.00000000,0.00072224
2974.00000000,0.00070268
2975.00000000,0.00076084
2976.00000000,0.00075159
2977.00000000,0.00074260
2978.00000000,0.00072012
2979.00000000,0.00074153
2980.00000000,0.00078595
2981.00000000,0.00084888
2982.00000000,0.00081291
2983.00000000,0.00082456
2984.00000000,0.00082086
2985.00000000,0.00081346
2986.00000000,0.00085496
2987.00000000,0.00083883
2988.00000000,0.00084094
2989.00000000,0.00088721
2990.00000000,0.00085389
2991.00000000,0.00086500
2992.00000000,0.00083617
2993.00000000,0.00082719
2994.00000000,0.00084174
2995.00000000,0.00086950
2996.00000000,0.00078464
2997.00000000,0.00079759
2998.00000000,0.00086447
2999.00000000,0.00092688
3000.00000000,0.00085444
