Pixel index,Intensity
1.00000000,0.00018796
2.00000000,0.00018743
3.00000000,0.00039547
4.00000000,0.00132708
5.00000000,0.00161548
6.00000000,0.00161099
7.00000000,0.00161021
8.00000000,0.00162424
9.00000000,0.00172123
10.00000000,0.00166412
11.00000000,0.00166570
12.00000000,0.00168290
13.00000000,0.00165778
14.00000000,0.00163214
15.00000000,0.00173179
16.00000000,0.00155018
17.00000000,0.00158904
18.00000000,0.00163980
19.00000000,0.00172123
20.00000000,0.00168239
21.00000000,0.00163664
22.00000000,0.00152957
23.00000000,0.00155468
24.00000000,0.00161919
25.00000000,0.00167495
26.00000000,0.00170615
27.00000000,0.00168686
28.00000000,0.00157663
29.00000000,0.00168421
30.00000000,0.00170722
31.00000000,0.00169213
32.00000000,0.00162421
33.00000000,0.00169478
34.00000000,0.00162684
35.00000000,0.00164721
36.00000000,0.00163743
37.00000000,0.00173973
38.00000000,0.00169296
39.00000000,0.00161971
40.00000000,0.00159513
41.00000000,0.00174502
42.00000000,0.00172467
43.00000000,0.00171593
44.00000000,0.00161892
45.00000000,0.00172121
46.00000000,0.00169821
47.00000000,0.00169477
48.00000000,0.00169294
49.00000000,0.00164191
50.00000000,0.00156076
51.00000000,0.00163134
52.00000000,0.00161629
53.00000000,0.00164693
54.00000000,0.00160570
55.00000000,0.00165514
56.00000000,0.00169294
57.00000000,0.00173443
58.00000000,0.00172466
59.00000000,0.00177409
60.00000000,0.00165595
61.00000000,0.00165250
62.00000000,0.00168502
63.00000000,0.00169478
64.00000000,0.00161628
65.00000000,0.00163927
66.00000000,0.00164008
67.00000000,0.00172387
68.00000000,0.00170774
69.00000000,0.00179525
70.00000000,0.00175903
71.00000000,0.00177461
72.00000000,0.00169029
73.00000000,0.00171063
74.00000000,0.00167708
75.00000000,0.00169744
76.00000000,0.00153697
77.00000000,0.00164772
78.00000000,0.00166386
79.00000000,0.00171065
80.00000000,0.00164800
81.00000000,0.00166307
82.00000000,0.00166388
83.00000000,0.00170006
84.00000000,0.00158322
85.00000000,0.00168422
86.00000000,0.00167180
87.00000000,0.00173444
88.00000000,0.00169295
89.00000000,0.00165249
90.00000000,0.00158191
91.00000000,0.00156526
92.00000000,0.00157399
93.00000000,0.00163135
94.00000000,0.00165593
95.00000000,0.00169743
96.00000000,0.00159778
97.00000000,0.00168686
98.00000000,0.00171144
99.00000000,0.00171355
100.00000000,0.00163742
101.00000000,0.00167891
102.00000000,0.00164799
103.00000000,0.00172651
104.00000000,0.00166651
105.00000000,0.00163926
106.00000000,0.00164006
107.00000000,0.00165513
108.00000000,0.00166386
109.00000000,0.00166306
110.00000000,0.00158878
111.00000000,0.00165777
112.00000000,0.00160042
113.00000000,0.00164456
114.00000000,0.00164008
115.00000000,0.00165779
116.00000000,0.00164800
117.00000000,0.00172651
118.00000000,0.00167710
119.00000000,0.00170326
120.00000000,0.00169824
121.00000000,0.00171593
122.00000000,0.00164535
123.00000000,0.00172148
124.00000000,0.00166651
125.00000000,0.00167099
126.00000000,0.00171673
127.00000000,0.00179259
128.00000000,0.00174845
129.00000000,0.00170008
130.00000000,0.00162686
131.00000000,0.00169744
132.00000000,0.00163215
133.00000000,0.00167231
134.00000000,0.00164801
135.00000000,0.00170538
136.00000000,0.00164007
137.00000000,0.00167498
138.00000000,0.00163745
139.00000000,0.00173708
140.00000000,0.00174052
141.00000000,0.00171858
142.00000000,0.00164801
143.00000000,0.00171330
144.00000000,0.00166387
145.00000000,0.00171066
146.00000000,0.00167974
147.00000000,0.00168158
148.00000000,0.00164536
149.00000000,0.00170272
150.00000000,0.00166122
151.00000000,0.00166042
152.00000000,0.00164271
153.00000000,0.00176088
154.00000000,0.00177410
155.00000000,0.00181111
156.00000000,0.00177912
157.00000000,0.00175294
158.00000000,0.00166386
159.00000000,0.00167365
160.00000000,0.00163215
161.00000000,0.00171065
162.00000000,0.00165330
163.00000000,0.00174237
164.00000000,0.00171937
165.00000000,0.00169743
166.00000000,0.00164007
167.00000000,0.00169742
168.00000000,0.00165856
169.00000000,0.00171065
170.00000000,0.00162950
171.00000000,0.00164985
172.00000000,0.00159963
173.00000000,0.00168792
174.00000000,0.00162712
175.00000000,0.00159962
176.00000000,0.00159512
177.00000000,0.00177937
178.00000000,0.00164006
179.00000000,0.00164773
180.00000000,0.00165858
181.00000000,0.00169505
182.00000000,0.00165778
183.00000000,0.00168685
184.00000000,0.00167179
185.00000000,0.00173443
186.00000000,0.00168765
187.00000000,0.00176616
188.00000000,0.00170880
189.00000000,0.00168158
190.00000000,0.00171674
191.00000000,0.00173710
192.00000000,0.00169296
193.00000000,0.00171146
194.00000000,0.00164537
195.00000000,0.00164985
196.00000000,0.00165989
197.00000000,0.00176615
198.00000000,0.00174316
199.00000000,0.00176352
200.00000000,0.00162472
201.00000000,0.00153088
202.00000000,0.00163215
203.00000000,0.00181903
204.00000000,0.00166386
205.00000000,0.00166043
206.00000000,0.00168502
207.00000000,0.00176088
208.00000000,0.00175904
209.00000000,0.00169823
210.00000000,0.00158191
211.00000000,0.00162340
212.00000000,0.00159776
213.00000000,0.00162683
214.00000000,0.00159249
215.00000000,0.00162342
216.00000000,0.00161100
217.00000000,0.00161549
218.00000000,0.00160572
219.00000000,0.00174503
220.00000000,0.00171674
221.00000000,0.00175030
222.00000000,0.00158191
223.00000000,0.00158904
224.00000000,0.00166440
225.00000000,0.00171593
226.00000000,0.00161098
227.00000000,0.00163398
228.00000000,0.00165329
229.00000000,0.00169742
230.00000000,0.00164007
231.00000000,0.00170800
232.00000000,0.00152375
233.00000000,0.00151290
234.00000000,0.00158904
235.00000000,0.00163742
236.00000000,0.00155547
237.00000000,0.00166570
238.00000000,0.00166650
239.00000000,0.00171064
240.00000000,0.00162684
241.00000000,0.00168685
242.00000000,0.00168237
243.00000000,0.00168951
244.00000000,0.00160042
245.00000000,0.00162922
246.00000000,0.00160041
247.00000000,0.00165513
248.00000000,0.00159776
249.00000000,0.00159168
250.00000000,0.00159513
251.00000000,0.00168951
252.00000000,0.00165594
253.00000000,0.00163715
254.00000000,0.00154013
255.00000000,0.00156524
256.00000000,0.00157397
257.00000000,0.00152083
258.00000000,0.00156075
259.00000000,0.00163928
260.00000000,0.00151847
261.00000000,0.00153670
262.00000000,0.00158456
263.00000000,0.00162606
264.00000000,0.00165594
265.00000000,0.00172915
266.00000000,0.00150789
267.00000000,0.00155204
268.00000000,0.00157661
269.00000000,0.00159961
270.00000000,0.00161627
271.00000000,0.00160490
272.00000000,0.00161496
273.00000000,0.00172122
274.00000000,0.00161364
275.00000000,0.00163664
276.00000000,0.00156606
277.00000000,0.00161549
278.00000000,0.00156869
279.00000000,0.00168156
280.00000000,0.00174581
281.00000000,0.00174237
282.00000000,0.00157134
283.00000000,0.00163452
284.00000000,0.00162235
285.00000000,0.00166887
286.00000000,0.00170088
287.00000000,0.00171066
288.00000000,0.00155813
289.00000000,0.00158376
290.00000000,0.00162950
291.00000000,0.00170272
292.00000000,0.00169558
293.00000000,0.00169743
294.00000000,0.00158455
295.00000000,0.00160754
296.00000000,0.00161364
297.00000000,0.00166836
298.00000000,0.00170880
299.00000000,0.00169479
300.00000000,0.00163743
301.00000000,0.00168686
302.00000000,0.00156868
303.00000000,0.00162895
304.00000000,0.00161892
305.00000000,0.00163953
306.00000000,0.00163743
307.00000000,0.00173179
308.00000000,0.00168765
309.00000000,0.00175823
310.00000000,0.00167707
311.00000000,0.00164455
312.00000000,0.00162950
313.00000000,0.00174342
314.00000000,0.00169557
315.00000000,0.00167892
316.00000000,0.00164536
317.00000000,0.00163927
318.00000000,0.00153962
319.00000000,0.00158640
320.00000000,0.00162422
321.00000000,0.00168950
322.00000000,0.00166650
323.00000000,0.00169478
324.00000000,0.00166386
325.00000000,0.00168156
326.00000000,0.00165064
327.00000000,0.00179577
328.00000000,0.00172228
329.00000000,0.00165010
330.00000000,0.00160596
331.00000000,0.00166306
332.00000000,0.00163743
333.00000000,0.00161284
334.00000000,0.00163213
335.00000000,0.00171857
336.00000000,0.00161892
337.00000000,0.00169743
338.00000000,0.00180661
339.00000000,0.00170536
340.00000000,0.00156078
341.00000000,0.00170271
342.00000000,0.00166728
343.00000000,0.00170799
344.00000000,0.00172466
345.00000000,0.00174501
346.00000000,0.00179604
347.00000000,0.00187984
348.00000000,0.00175903
349.00000000,0.00172015
350.00000000,0.00166386
351.00000000,0.00173180
352.00000000,0.00169559
353.00000000,0.00173708
354.00000000,0.00169822
355.00000000,0.00179049
356.00000000,0.00171648
357.00000000,0.00166042
358.00000000,0.00162395
359.00000000,0.00172968
360.00000000,0.00173259
361.00000000,0.00178467
362.00000000,0.00180397
363.00000000,0.00188777
364.00000000,0.00184099
365.00000000,0.00183489
366.00000000,0.00174052
367.00000000,0.00176617
368.00000000,0.00176697
369.00000000,0.00176088
370.00000000,0.00183835
371.00000000,0.00187721
372.00000000,0.00175904
373.00000000,0.00184284
374.00000000,0.00180134
375.00000000,0.00179525
376.00000000,0.00177754
377.00000000,0.00180053
378.00000000,0.00174051
379.00000000,0.00179788
380.00000000,0.00170880
381.00000000,0.00174501
382.00000000,0.00179076
383.00000000,0.00184018
384.00000000,0.00176696
385.00000000,0.00181902
386.00000000,0.00176985
387.00000000,0.00184651
388.00000000,0.00185684
389.00000000,0.00190098
390.00000000,0.00180662
391.00000000,0.00181373
392.00000000,0.00181717
393.00000000,0.00182563
394.00000000,0.00175110
395.00000000,0.00179524
396.00000000,0.00176960
397.00000000,0.00182961
398.00000000,0.00181191
399.00000000,0.00180847
400.00000000,0.00180664
401.00000000,0.00191422
402.00000000,0.00191499
403.00000000,0.00193006
404.00000000,0.00170353
405.00000000,0.00176882
406.00000000,0.00192823
407.00000000,0.00199352
408.00000000,0.00185395
409.00000000,0.00185869
410.00000000,0.00184098
411.00000000,0.00186925
412.00000000,0.00187536
413.00000000,0.00197898
414.00000000,0.00188329
415.00000000,0.00182697
416.00000000,0.00177490
417.00000000,0.00194461
418.00000000,0.00195465
419.00000000,0.00189306
420.00000000,0.00177225
421.00000000,0.00192214
422.00000000,0.00185949
423.00000000,0.00180053
424.00000000,0.00179075
425.00000000,0.00184017
426.00000000,0.00178282
427.00000000,0.00187455
428.00000000,0.00181718
429.00000000,0.00188776
430.00000000,0.00183042
431.00000000,0.00188012
432.00000000,0.00186479
433.00000000,0.00190892
434.00000000,0.00183568
435.00000000,0.00190627
436.00000000,0.00193615
437.00000000,0.00194064
438.00000000,0.00181455
439.00000000,0.00184019
440.00000000,0.00179605
441.00000000,0.00186397
442.00000000,0.00179603
443.00000000,0.00177937
444.00000000,0.00175110
445.00000000,0.00182829
446.00000000,0.00182775
447.00000000,0.00189041
448.00000000,0.00181190
449.00000000,0.00181136
450.00000000,0.00175375
451.00000000,0.00186661
452.00000000,0.00184098
453.00000000,0.00180846
454.00000000,0.00178018
455.00000000,0.00188775
456.00000000,0.00179603
457.00000000,0.00178730
458.00000000,0.00171937
459.00000000,0.00178465
460.00000000,0.00171541
461.00000000,0.00176882
462.00000000,0.00175640
463.00000000,0.00180317
464.00000000,0.00175639
465.00000000,0.00187720
466.00000000,0.00185977
467.00000000,0.00176670
468.00000000,0.00174343
469.00000000,0.00176218
470.00000000,0.00174422
471.00000000,0.00176617
472.00000000,0.00175638
473.00000000,0.00175294
474.00000000,0.00161628
475.00000000,0.00167894
476.00000000,0.00162422
477.00000000,0.00165803
478.00000000,0.00161706
479.00000000,0.00167284
480.00000000,0.00168685
481.00000000,0.00175292
482.00000000,0.00165064
483.00000000,0.00167365
484.00000000,0.00166519
485.00000000,0.00168500
486.00000000,0.00168766
487.00000000,0.00170008
488.00000000,0.00163214
489.00000000,0.00164719
490.00000000,0.00153696
491.00000000,0.00163399
492.00000000,0.00165858
493.00000000,0.00170007
494.00000000,0.00173788
495.00000000,0.00171330
496.00000000,0.00164536
497.00000000,0.00167101
498.00000000,0.00153434
499.00000000,0.00161046
500.00000000,0.00165912
501.00000000,0.00171593
502.00000000,0.00157396
503.00000000,0.00152559
504.00000000,0.00159247
505.00000000,0.00156577
506.00000000,0.00148410
507.00000000,0.00166306
508.00000000,0.00170089
509.00000000,0.00168157
510.00000000,0.00163742
511.00000000,0.00160226
512.00000000,0.00160306
513.00000000,0.00169743
514.00000000,0.00158191
515.00000000,0.00163769
516.00000000,0.00159778
517.00000000,0.00158111
518.00000000,0.00155812
519.00000000,0.00161548
520.00000000,0.00162156
521.00000000,0.00160753
522.00000000,0.00158191
523.00000000,0.00163213
524.00000000,0.00159514
525.00000000,0.00161548
526.00000000,0.00150525
527.00000000,0.00154674
528.00000000,0.00161364
529.00000000,0.00171329
530.00000000,0.00161099
531.00000000,0.00154409
532.00000000,0.00150525
533.00000000,0.00159698
534.00000000,0.00155020
535.00000000,0.00159170
536.00000000,0.00151873
537.00000000,0.00160489
538.00000000,0.00163820
539.00000000,0.00166570
540.00000000,0.00163479
541.00000000,0.00171065
542.00000000,0.00167708
543.00000000,0.00167891
544.00000000,0.00166385
545.00000000,0.00167601
546.00000000,0.00160016
547.00000000,0.00167099
548.00000000,0.00164799
549.00000000,0.00167893
550.00000000,0.00161100
551.00000000,0.00167364
552.00000000,0.00172730
553.00000000,0.00179259
554.00000000,0.00174052
555.00000000,0.00173181
556.00000000,0.00165594
557.00000000,0.00169214
558.00000000,0.00166917
559.00000000,0.00181905
560.00000000,0.00180133
561.00000000,0.00181111
562.00000000,0.00172731
563.00000000,0.00183490
564.00000000,0.00187536
565.00000000,0.00185075
566.00000000,0.00170616
567.00000000,0.00175559
568.00000000,0.00182777
569.00000000,0.00186133
570.00000000,0.00177199
571.00000000,0.00175611
572.00000000,0.00172466
573.00000000,0.00183489
574.00000000,0.00178019
575.00000000,0.00178467
576.00000000,0.00179075
577.00000000,0.00180581
578.00000000,0.00180131
579.00000000,0.00192741
580.00000000,0.00183041
581.00000000,0.00179258
582.00000000,0.00178043
583.00000000,0.00190890
584.00000000,0.00193615
585.00000000,0.00195650
586.00000000,0.00195201
587.00000000,0.00198557
588.00000000,0.00193615
589.00000000,0.00199616
590.00000000,0.00193616
591.00000000,0.00194884
592.00000000,0.00202710
593.00000000,0.00215477
594.00000000,0.00205512
595.00000000,0.00199616
596.00000000,0.00199167
597.00000000,0.00211511
598.00000000,0.00209475
599.00000000,0.00209923
600.00000000,0.00201544
601.00000000,0.00219970
602.00000000,0.00214764
603.00000000,0.00205696
604.00000000,0.00203924
605.00000000,0.00217855
606.00000000,0.00225602
607.00000000,0.00225257
608.00000000,0.00212649
609.00000000,0.00218914
610.00000000,0.00221638
611.00000000,0.00230809
612.00000000,0.00229039
613.00000000,0.00228166
614.00000000,0.00226660
615.00000000,0.00238740
616.00000000,0.00231947
617.00000000,0.00221823
618.00000000,0.00225075
619.00000000,0.00236098
620.00000000,0.00225605
621.00000000,0.00229225
622.00000000,0.00221400
623.00000000,0.00235833
624.00000000,0.00241200
625.00000000,0.00242970
626.00000000,0.00228775
627.00000000,0.00232133
628.00000000,0.00233535
629.00000000,0.00230282
630.00000000,0.00231155
631.00000000,0.00240591
632.00000000,0.00235120
633.00000000,0.00246143
634.00000000,0.00249660
635.00000000,0.00250639
636.00000000,0.00237500
637.00000000,0.00239006
638.00000000,0.00238557
639.00000000,0.00244556
640.00000000,0.00245958
641.00000000,0.00260682
642.00000000,0.00258913
643.00000000,0.00253545
644.00000000,0.00253097
645.00000000,0.00259625
646.00000000,0.00248604
647.00000000,0.00252753
648.00000000,0.00247809
649.00000000,0.00248785
650.00000000,0.00245957
651.00000000,0.00246670
652.00000000,0.00235648
653.00000000,0.00242970
654.00000000,0.00243579
655.00000000,0.00254865
656.00000000,0.00256798
657.00000000,0.00251695
658.00000000,0.00248074
659.00000000,0.00253545
660.00000000,0.00251775
661.00000000,0.00263063
662.00000000,0.00253097
663.00000000,0.00254338
664.00000000,0.00251246
665.00000000,0.00255130
666.00000000,0.00248866
667.00000000,0.00244028
668.00000000,0.00245167
669.00000000,0.00255926
670.00000000,0.00258650
671.00000000,0.00260949
672.00000000,0.00257327
673.00000000,0.00263061
674.00000000,0.00258119
675.00000000,0.00254866
676.00000000,0.00249661
677.00000000,0.00251693
678.00000000,0.00246221
679.00000000,0.00250371
680.00000000,0.00240936
681.00000000,0.00246143
682.00000000,0.00243579
683.00000000,0.00251693
684.00000000,0.00253361
685.00000000,0.00254073
686.00000000,0.00245958
687.00000000,0.00245350
688.00000000,0.00239085
689.00000000,0.00239799
690.00000000,0.00236443
691.00000000,0.00242707
692.00000000,0.00240936
693.00000000,0.00242442
694.00000000,0.00239615
695.00000000,0.00231867
696.00000000,0.00223752
697.00000000,0.00229752
698.00000000,0.00219259
699.00000000,0.00228432
700.00000000,0.00237501
701.00000000,0.00240593
702.00000000,0.00222694
703.00000000,0.00225257
704.00000000,0.00225867
705.00000000,0.00232661
706.00000000,0.00220843
707.00000000,0.00217062
708.00000000,0.00214023
709.00000000,0.00221557
710.00000000,0.00224017
711.00000000,0.00220500
712.00000000,0.00210800
713.00000000,0.00218915
714.00000000,0.00207628
715.00000000,0.00215742
716.00000000,0.00212913
717.00000000,0.00217328
718.00000000,0.00212649
719.00000000,0.00214948
720.00000000,0.00206039
721.00000000,0.00205960
722.00000000,0.00198375
723.00000000,0.00203316
724.00000000,0.00199960
725.00000000,0.00196973
726.00000000,0.00189915
727.00000000,0.00195650
728.00000000,0.00191765
729.00000000,0.00184811
730.00000000,0.00174582
731.00000000,0.00190099
732.00000000,0.00191764
733.00000000,0.00184547
734.00000000,0.00179076
735.00000000,0.00178203
736.00000000,0.00168898
737.00000000,0.00182537
738.00000000,0.00180397
739.00000000,0.00177674
740.00000000,0.00169558
741.00000000,0.00171330
742.00000000,0.00164800
743.00000000,0.00172122
744.00000000,0.00174846
745.00000000,0.00173180
746.00000000,0.00162156
747.00000000,0.00166042
748.00000000,0.00165064
749.00000000,0.00167099
750.00000000,0.00160360
751.00000000,0.00159222
752.00000000,0.00157927
753.00000000,0.00167100
754.00000000,0.00158985
755.00000000,0.00157900
756.00000000,0.00163028
757.00000000,0.00161811
758.00000000,0.00151608
759.00000000,0.00155599
760.00000000,0.00155680
761.00000000,0.00162870
762.00000000,0.00159248
763.00000000,0.00159961
764.00000000,0.00153696
765.00000000,0.00159697
766.00000000,0.00158640
767.00000000,0.00157186
768.00000000,0.00154754
769.00000000,0.00161019
770.00000000,0.00159248
771.00000000,0.00166042
772.00000000,0.00160041
773.00000000,0.00158111
774.00000000,0.00152640
775.00000000,0.00159697
776.00000000,0.00160305
777.00000000,0.00166833
778.00000000,0.00166173
779.00000000,0.00161416
780.00000000,0.00151847
781.00000000,0.00157953
782.00000000,0.00154226
783.00000000,0.00156605
784.00000000,0.00161628
785.00000000,0.00170802
786.00000000,0.00158747
787.00000000,0.00170061
788.00000000,0.00172731
789.00000000,0.00172387
790.00000000,0.00170353
791.00000000,0.00174501
792.00000000,0.00176616
793.00000000,0.00183490
794.00000000,0.00172732
795.00000000,0.00179525
796.00000000,0.00179870
797.00000000,0.00189834
798.00000000,0.00192293
799.00000000,0.00194328
800.00000000,0.00195203
801.00000000,0.00196179
802.00000000,0.00194118
803.00000000,0.00205088
804.00000000,0.00202604
805.00000000,0.00204111
806.00000000,0.00198638
807.00000000,0.00204902
808.00000000,0.00203661
809.00000000,0.00208076
810.00000000,0.00206306
811.00000000,0.00218385
812.00000000,0.00228510
813.00000000,0.00223406
814.00000000,0.00225866
815.00000000,0.00234245
816.00000000,0.00234855
817.00000000,0.00244557
818.00000000,0.00248867
819.00000000,0.00256453
820.00000000,0.00248867
821.00000000,0.00257245
822.00000000,0.00265521
823.00000000,0.00270993
824.00000000,0.00264464
825.00000000,0.00265970
826.00000000,0.00272659
827.00000000,0.00282888
828.00000000,0.00270809
829.00000000,0.00281831
830.00000000,0.00293808
831.00000000,0.00301657
832.00000000,0.00296186
833.00000000,0.00301658
834.00000000,0.00307291
835.00000000,0.00319106
836.00000000,0.00319451
837.00000000,0.00326244
838.00000000,0.00319451
839.00000000,0.00337083
840.00000000,0.00341657
841.00000000,0.00343162
842.00000000,0.00353553
843.00000000,0.00358495
844.00000000,0.00344036
845.00000000,0.00362461
846.00000000,0.00373381
847.00000000,0.00379380
848.00000000,0.00374703
849.00000000,0.00385988
850.00000000,0.00385540
851.00000000,0.00399470
852.00000000,0.00397966
853.00000000,0.00407930
854.00000000,0.00415151
855.00000000,0.00427493
856.00000000,0.00427045
857.00000000,0.00432780
858.00000000,0.00442642
859.00000000,0.00461595
860.00000000,0.00455333
861.00000000,0.00461859
862.00000000,0.00447137
863.00000000,0.00466353
864.00000000,0.00476744
865.00000000,0.00480894
866.00000000,0.00478068
867.00000000,0.00494641
868.00000000,0.00492608
869.00000000,0.00490412
870.00000000,0.00491286
871.00000000,0.00503629
872.00000000,0.00509790
873.00000000,0.00516054
874.00000000,0.00514550
875.00000000,0.00520549
876.00000000,0.00514285
877.00000000,0.00532708
878.00000000,0.00529619
879.00000000,0.00528215
880.00000000,0.00516400
881.00000000,0.00526364
882.00000000,0.00534375
883.00000000,0.00547249
884.00000000,0.00537814
885.00000000,0.00542226
886.00000000,0.00540721
887.00000000,0.00562052
888.00000000,0.00575087
889.00000000,0.00571834
890.00000000,0.00575088
891.00000000,0.00598269
892.00000000,0.00588834
893.00000000,0.00598004
894.00000000,0.00599672
895.00000000,0.00613072
896.00000000,0.00600731
897.00000000,0.00592982
898.00000000,0.00588042
899.00000000,0.00601708
900.00000000,0.00596765
901.00000000,0.00598534
902.00000000,0.00588041
903.00000000,0.00596683
904.00000000,0.00600994
905.00000000,0.00608051
906.00000000,0.00598087
907.00000000,0.00604348
908.00000000,0.00599144
909.00000000,0.00610164
910.00000000,0.00602580
911.00000000,0.00603291
912.00000000,0.00589627
913.00000000,0.00598006
914.00000000,0.00593593
915.00000000,0.00599328
916.00000000,0.00586985
917.00000000,0.00593512
918.00000000,0.00584342
919.00000000,0.00586373
920.00000000,0.00588570
921.00000000,0.00595890
922.00000000,0.00582488
923.00000000,0.00590073
924.00000000,0.00587249
925.00000000,0.00588489
926.00000000,0.00578525
927.00000000,0.00582408
928.00000000,0.00568742
929.00000000,0.00575006
930.00000000,0.00563721
931.00000000,0.00568397
932.00000000,0.00552353
933.00000000,0.00551477
934.00000000,0.00547593
935.00000000,0.00542753
936.00000000,0.00527238
937.00000000,0.00541432
938.00000000,0.00531997
939.00000000,0.00529006
940.00000000,0.00526179
941.00000000,0.00535087
942.00000000,0.00523273
943.00000000,0.00517111
944.00000000,0.00506089
945.00000000,0.00498341
946.00000000,0.00480710
947.00000000,0.00482479
948.00000000,0.00468285
949.00000000,0.00468204
950.00000000,0.00461413
951.00000000,0.00457366
952.00000000,0.00436827
953.00000000,0.00445999
954.00000000,0.00448989
955.00000000,0.00441240
956.00000000,0.00415150
957.00000000,0.00422471
958.00000000,0.00416471
959.00000000,0.00406874
960.00000000,0.00392151
961.00000000,0.00405553
962.00000000,0.00395588
963.00000000,0.00391806
964.00000000,0.00374439
965.00000000,0.00368013
966.00000000,0.00359369
967.00000000,0.00359553
968.00000000,0.00346415
969.00000000,0.00342898
970.00000000,0.00329761
971.00000000,0.00341577
972.00000000,0.00322624
973.00000000,0.00324921
974.00000000,0.00317599
975.00000000,0.00311703
976.00000000,0.00300154
977.00000000,0.00295050
978.00000000,0.00285613
979.00000000,0.00282360
980.00000000,0.00265521
981.00000000,0.00259361
982.00000000,0.00245695
983.00000000,0.00240856
984.00000000,0.00226395
985.00000000,0.00228429
986.00000000,0.00222168
987.00000000,0.00224730
988.00000000,0.00219787
989.00000000,0.00227372
990.00000000,0.00215821
991.00000000,0.00214153
992.00000000,0.00206304
993.00000000,0.00201467
994.00000000,0.00192980
995.00000000,0.00190124
996.00000000,0.00179339
997.00000000,0.00185339
998.00000000,0.00174053
999.00000000,0.00177674
1000.00000000,0.00170881
1001.00000000,0.00171592
1002.00000000,0.00160041
1003.00000000,0.00158615
1004.00000000,0.00145503
1005.00000000,0.00157318
1006.00000000,0.00158456
1007.00000000,0.00156552
1008.00000000,0.00146559
1009.00000000,0.00148593
1010.00000000,0.00146056
1011.00000000,0.00150708
1012.00000000,0.00142065
1013.00000000,0.00151502
1014.00000000,0.00151556
1015.00000000,0.00147193
1016.00000000,0.00160834
1017.00000000,0.00163133
1018.00000000,0.00154489
1019.00000000,0.00151766
1020.00000000,0.00149599
1021.00000000,0.00164984
1022.00000000,0.00166518
1023.00000000,0.00166147
1024.00000000,0.00174051
1025.00000000,0.00185074
1026.00000000,0.00185949
1027.00000000,0.00188248
1028.00000000,0.00186741
1029.00000000,0.00209925
1030.00000000,0.00215295
1031.00000000,0.00216801
1032.00000000,0.00225340
1033.00000000,0.00235305
1034.00000000,0.00238029
1035.00000000,0.00251430
1036.00000000,0.00250982
1037.00000000,0.00263591
1038.00000000,0.00267637
1039.00000000,0.00281038
1040.00000000,0.00299360
1041.00000000,0.00321221
1042.00000000,0.00330290
1043.00000000,0.00338669
1044.00000000,0.00347474
1045.00000000,0.00375150
1046.00000000,0.00394529
1047.00000000,0.00402643
1048.00000000,0.00401666
1049.00000000,0.00425906
1050.00000000,0.00429425
1051.00000000,0.00442032
1052.00000000,0.00454275
1053.00000000,0.00477986
1054.00000000,0.00489700
1055.00000000,0.00507067
1056.00000000,0.00513228
1057.00000000,0.00537467
1058.00000000,0.00557376
1059.00000000,0.00584522
1060.00000000,0.00596764
1061.00000000,0.00628934
1062.00000000,0.00645937
1063.00000000,0.00665947
1064.00000000,0.00683740
1065.00000000,0.00713795
1066.00000000,0.00728682
1067.00000000,0.00767194
1068.00000000,0.00779701
1069.00000000,0.00810550
1070.00000000,0.00836541
1071.00000000,0.00866330
1072.00000000,0.00877780
1073.00000000,0.00906512
1074.00000000,0.00926686
1075.00000000,0.00964671
1076.00000000,0.00982466
1077.00000000,0.01016486
1078.00000000,0.01020801
1079.00000000,0.01050323
1080.00000000,0.01072614
1081.00000000,0.01110069
1082.00000000,0.01138967
1083.00000000,0.01170869
1084.00000000,0.01179414
1085.00000000,0.01231939
1086.00000000,0.01254759
1087.00000000,0.01273178
1088.00000000,0.01291768
1089.00000000,0.01319707
1090.00000000,0.01340940
1091.00000000,0.01389495
1092.00000000,0.01408616
1093.00000000,0.01426241
1094.00000000,0.01420775
1095.00000000,0.01456381
1096.00000000,0.01483957
1097.00000000,0.01537007
1098.00000000,0.01559565
1099.00000000,0.01572961
1100.00000000,0.01606357
1101.00000000,0.01662315
1102.00000000,0.01659494
1103.00000000,0.01685049
1104.00000000,0.01701793
1105.00000000,0.01723912
1106.00000000,0.01743031
1107.00000000,0.01770440
1108.00000000,0.01793262
1109.00000000,0.01853712
1110.00000000,0.01900856
1111.00000000,0.01933814
1112.00000000,0.01933373
1113.00000000,0.01974787
1114.00000000,0.01996024
1115.00000000,0.02031626
1116.00000000,0.02041232
1117.00000000,0.02070752
1118.00000000,0.02106530
1119.00000000,0.02128646
1120.00000000,0.02149356
1121.00000000,0.02175437
1122.00000000,0.02185309
1123.00000000,0.02201080
1124.00000000,0.02202224
1125.00000000,0.02228042
1126.00000000,0.02250074
1127.00000000,0.02269283
1128.00000000,0.02271223
1129.00000000,0.02288319
1130.00000000,0.02299248
1131.00000000,0.02309732
1132.00000000,0.02307177
1133.00000000,0.02332994
1134.00000000,0.02357669
1135.00000000,0.02370268
1136.00000000,0.02363750
1137.00000000,0.02363397
1138.00000000,0.02361899
1139.00000000,0.02376350
1140.00000000,0.02405786
1141.00000000,0.02456717
1142.00000000,0.02478486
1143.00000000,0.02515404
1144.00000000,0.02520780
1145.00000000,0.02505887
1146.00000000,0.02505187
1147.00000000,0.02540517
1148.00000000,0.02553825
1149.00000000,0.02557701
1150.00000000,0.02552240
1151.00000000,0.02547920
1152.00000000,0.02553298
1153.00000000,0.02569332
1154.00000000,0.02572595
1155.00000000,0.02562459
1156.00000000,0.02555148
1157.00000000,0.02554264
1158.00000000,0.02550654
1159.00000000,0.02535228
1160.00000000,0.02527920
1161.00000000,0.02517255
1162.00000000,0.02510208
1163.00000000,0.02502187
1164.00000000,0.02472403
1165.00000000,0.02455127
1166.00000000,0.02427460
1167.00000000,0.02399349
1168.00000000,0.02383048
1169.00000000,0.02360753
1170.00000000,0.02363751
1171.00000000,0.02371856
1172.00000000,0.02355027
1173.00000000,0.02363397
1174.00000000,0.02363220
1175.00000000,0.02350177
1176.00000000,0.02317751
1177.00000000,0.02290169
1178.00000000,0.02288144
1179.00000000,0.02266112
1180.00000000,0.02234741
1181.00000000,0.02213767
1182.00000000,0.02192708
1183.00000000,0.02182573
1184.00000000,0.02155170
1185.00000000,0.02152438
1186.00000000,0.02122389
1187.00000000,0.02083703
1188.00000000,0.02063173
1189.00000000,0.02053569
1190.00000000,0.02019819
1191.00000000,0.01984836
1192.00000000,0.01942624
1193.00000000,0.01892835
1194.00000000,0.01859085
1195.00000000,0.01823838
1196.00000000,0.01782686
1197.00000000,0.01742152
1198.00000000,0.01688046
1199.00000000,0.01667339
1200.00000000,0.01628036
1201.00000000,0.01584858
1202.00000000,0.01538151
1203.00000000,0.01499733
1204.00000000,0.01459636
1205.00000000,0.01436552
1206.00000000,0.01394343
1207.00000000,0.01369143
1208.00000000,0.01331950
1209.00000000,0.01310452
1210.00000000,0.01267712
1211.00000000,0.01240135
1212.00000000,0.01203474
1213.00000000,0.01173780
1214.00000000,0.01126279
1215.00000000,0.01090243
1216.00000000,0.01042479
1217.00000000,0.01018337
1218.00000000,0.00965020
1219.00000000,0.00935328
1220.00000000,0.00905539
1221.00000000,0.00881928
1222.00000000,0.00832839
1223.00000000,0.00816630
1224.00000000,0.00768599
1225.00000000,0.00736000
1226.00000000,0.00700130
1227.00000000,0.00670175
1228.00000000,0.00627696
1229.00000000,0.00597474
1230.00000000,0.00556053
1231.00000000,0.00541696
1232.00000000,0.00497629
1233.00000000,0.00484066
1234.00000000,0.00452426
1235.00000000,0.00430137
1236.00000000,0.00387126
1237.00000000,0.00365370
1238.00000000,0.00341392
1239.00000000,0.00328621
1240.00000000,0.00303854
1241.00000000,0.00296637
1242.00000000,0.00266050
1243.00000000,0.00256453
1244.00000000,0.00234328
1245.00000000,0.00230017
1246.00000000,0.00210270
1247.00000000,0.00202789
1248.00000000,0.00188857
1249.00000000,0.00188776
1250.00000000,0.00183304
1251.00000000,0.00185604
1252.00000000,0.00180186
1253.00000000,0.00186662
1254.00000000,0.00181455
1255.00000000,0.00189041
1256.00000000,0.00196259
1257.00000000,0.00200409
1258.00000000,0.00212385
1259.00000000,0.00228168
1260.00000000,0.00232741
1261.00000000,0.00256981
1262.00000000,0.00274246
1263.00000000,0.00298486
1264.00000000,0.00322094
1265.00000000,0.00358497
1266.00000000,0.00391359
1267.00000000,0.00420621
1268.00000000,0.00445552
1269.00000000,0.00495698
1270.00000000,0.00537813
1271.00000000,0.00586902
1272.00000000,0.00637477
1273.00000000,0.00689473
1274.00000000,0.00741107
1275.00000000,0.00804205
1276.00000000,0.00853194
1277.00000000,0.00921580
1278.00000000,0.00993042
1279.00000000,0.01079403
1280.00000000,0.01152450
1281.00000000,0.01238548
1282.00000000,0.01317676
1283.00000000,0.01415139
1284.00000000,0.01475764
1285.00000000,0.01589882
1286.00000000,0.01680380
1287.00000000,0.01821989
1288.00000000,0.01922797
1289.00000000,0.02033740
1290.00000000,0.02135342
1291.00000000,0.02277478
1292.00000000,0.02375118
1293.00000000,0.02519369
1294.00000000,0.02636307
1295.00000000,0.02753590
1296.00000000,0.02846472
1297.00000000,0.02991776
1298.00000000,0.03116648
1299.00000000,0.03284425
1300.00000000,0.03421986
1301.00000000,0.03591083
1302.00000000,0.03724945
1303.00000000,0.03913602
1304.00000000,0.04091348
1305.00000000,0.04274982
1306.00000000,0.04424707
1307.00000000,0.04619703
1308.00000000,0.04807235
1309.00000000,0.05051136
1310.00000000,0.05261403
1311.00000000,0.05452697
1312.00000000,0.05663762
1313.00000000,0.05910305
1314.00000000,0.06158380
1315.00000000,0.06371083
1316.00000000,0.06599597
1317.00000000,0.06793529
1318.00000000,0.07016759
1319.00000000,0.07287615
1320.00000000,0.07597557
1321.00000000,0.07826113
1322.00000000,0.08046178
1323.00000000,0.08256759
1324.00000000,0.08518325
1325.00000000,0.08692685
1326.00000000,0.08954261
1327.00000000,0.09221141
1328.00000000,0.09523428
1329.00000000,0.09769426
1330.00000000,0.10117444
1331.00000000,0.10372954
1332.00000000,0.10717013
1333.00000000,0.10946086
1334.00000000,0.11275081
1335.00000000,0.11621523
1336.00000000,0.12053618
1337.00000000,0.12348246
1338.00000000,0.12763429
1339.00000000,0.13052765
1340.00000000,0.13422475
1341.00000000,0.13728727
1342.00000000,0.14201278
1343.00000000,0.14689937
1344.00000000,0.15216691
1345.00000000,0.15570522
1346.00000000,0.16072956
1347.00000000,0.16364661
1348.00000000,0.16886400
1349.00000000,0.17255815
1350.00000000,0.17667052
1351.00000000,0.17914858
1352.00000000,0.18489209
1353.00000000,0.18792797
1354.00000000,0.19216204
1355.00000000,0.19402677
1356.00000000,0.19852518
1357.00000000,0.20155038
1358.00000000,0.20597222
1359.00000000,0.20937548
1360.00000000,0.21528039
1361.00000000,0.21845618
1362.00000000,0.22381122
1363.00000000,0.22698704
1364.00000000,0.23347892
1365.00000000,0.23813772
1366.00000000,0.24452126
1367.00000000,0.24914300
1368.00000000,0.25659455
1369.00000000,0.26029631
1370.00000000,0.26613805
1371.00000000,0.26996400
1372.00000000,0.27790209
1373.00000000,0.28447990
1374.00000000,0.29207176
1375.00000000,0.29554342
1376.00000000,0.30248495
1377.00000000,0.30770915
1378.00000000,0.31578754
1379.00000000,0.31898941
1380.00000000,0.32542354
1381.00000000,0.32887905
1382.00000000,0.33439058
1383.00000000,0.33574974
1384.00000000,0.34299553
1385.00000000,0.34580598
1386.00000000,0.35112996
1387.00000000,0.35286703
1388.00000000,0.36032434
1389.00000000,0.36262449
1390.00000000,0.36622491
1391.00000000,0.36825275
1392.00000000,0.37606439
1393.00000000,0.38102393
1394.00000000,0.39164847
1395.00000000,0.39794295
1396.00000000,0.40461536
1397.00000000,0.40757356
1398.00000000,0.41623659
1399.00000000,0.42451895
1400.00000000,0.43346765
1401.00000000,0.43642566
1402.00000000,0.44667240
1403.00000000,0.45377567
1404.00000000,0.46230669
1405.00000000,0.46776813
1406.00000000,0.47516520
1407.00000000,0.48025386
1408.00000000,0.48693454
1409.00000000,0.48886401
1410.00000000,0.49618188
1411.00000000,0.49862150
1412.00000000,0.50200036
1413.00000000,0.50351219
1414.00000000,0.51178178
1415.00000000,0.51587353
1416.00000000,0.52037608
1417.00000000,0.52086206
1418.00000000,0.52586166
1419.00000000,0.52658544
1420.00000000,0.53230401
1421.00000000,0.53681079
1422.00000000,0.54288104
1423.00000000,0.54930441
1424.00000000,0.55961519
1425.00000000,0.56368303
1426.00000000,0.56988560
1427.00000000,0.57553425
1428.00000000,0.58336270
1429.00000000,0.58661349
1430.00000000,0.59553377
1431.00000000,0.60564477
1432.00000000,0.61213308
1433.00000000,0.61730827
1434.00000000,0.62271269
1435.00000000,0.62856462
1436.00000000,0.63483883
1437.00000000,0.63703467
1438.00000000,0.63988024
1439.00000000,0.64224528
1440.00000000,0.64526263
1441.00000000,0.64795542
1442.00000000,0.64902711
1443.00000000,0.65022627
1444.00000000,0.65108128
1445.00000000,0.65008622
1446.00000000,0.65095962
1447.00000000,0.65341180
1448.00000000,0.65624153
1449.00000000,0.66151181
1450.00000000,0.66605989
1451.00000000,0.67075375
1452.00000000,0.67334567
1453.00000000,0.67637675
1454.00000000,0.68255343
1455.00000000,0.68821211
1456.00000000,0.69098642
1457.00000000,0.69713943
1458.00000000,0.69947767
1459.00000000,0.70462612
1460.00000000,0.70653876
1461.00000000,0.71111876
1462.00000000,0.70954451
1463.00000000,0.71359846
1464.00000000,0.71359447
1465.00000000,0.71978972
1466.00000000,0.71845615
1467.00000000,0.72251797
1468.00000000,0.71850104
1469.00000000,0.72126753
1470.00000000,0.71596856
1471.00000000,0.72043222
1472.00000000,0.71815478
1473.00000000,0.72073621
1474.00000000,0.71552702
1475.00000000,0.71857104
1476.00000000,0.71289394
1477.00000000,0.71841508
1478.00000000,0.71933640
1479.00000000,0.72443718
1480.00000000,0.72376708
1481.00000000,0.72981686
1482.00000000,0.72963065
1483.00000000,0.73723747
1484.00000000,0.73605720
1485.00000000,0.74129799
1486.00000000,0.73493365
1487.00000000,0.74135084
1488.00000000,0.73886211
1489.00000000,0.74630765
1490.00000000,0.74330598
1491.00000000,0.74918385
1492.00000000,0.74281431
1493.00000000,0.74829297
1494.00000000,0.74120696
1495.00000000,0.74623626
1496.00000000,0.73692703
1497.00000000,0.74089095
1498.00000000,0.73374933
1499.00000000,0.73805697
1500.00000000,0.73128819
1501.00000000,0.73534732
1502.00000000,0.72762945
1503.00000000,0.73212216
1504.00000000,0.72830889
1505.00000000,0.73267467
1506.00000000,0.72855994
1507.00000000,0.73407571
1508.00000000,0.73189623
1509.00000000,0.73706300
1510.00000000,0.73444195
1511.00000000,0.74039125
1512.00000000,0.73662034
1513.00000000,0.74270975
1514.00000000,0.73874052
1515.00000000,0.74520526
1516.00000000,0.74067038
1517.00000000,0.74541149
1518.00000000,0.73484913
1519.00000000,0.73819976
1520.00000000,0.73140448
1521.00000000,0.73511463
1522.00000000,0.72624151
1523.00000000,0.72786065
1524.00000000,0.72044682
1525.00000000,0.72297006
1526.00000000,0.71672718
1527.00000000,0.71699546
1528.00000000,0.71055178
1529.00000000,0.71211810
1530.00000000,0.70280068
1531.00000000,0.70413438
1532.00000000,0.70459042
1533.00000000,0.70463140
1534.00000000,0.69964424
1535.00000000,0.70128990
1536.00000000,0.70144979
1537.00000000,0.70392292
1538.00000000,0.69941691
1539.00000000,0.70145912
1540.00000000,0.70243322
1541.00000000,0.70637880
1542.00000000,0.70084440
1543.00000000,0.69955042
1544.00000000,0.69227654
1545.00000000,0.69243917
1546.00000000,0.68891917
1547.00000000,0.68243052
1548.00000000,0.67878353
1549.00000000,0.67978164
1550.00000000,0.66617621
1551.00000000,0.65139734
1552.00000000,0.64540534
1553.00000000,0.64189362
1554.00000000,0.63711504
1555.00000000,0.62754685
1556.00000000,0.62111064
1557.00000000,0.62088761
1558.00000000,0.62959660
1559.00000000,0.63254329
1560.00000000,0.62278933
1561.00000000,0.61600222
1562.00000000,0.61703948
1563.00000000,0.61774705
1564.00000000,0.62001623
1565.00000000,0.61627463
1566.00000000,0.61275160
1567.00000000,0.61005947
1568.00000000,0.60192853
1569.00000000,0.59006326
1570.00000000,0.58735704
1571.00000000,0.58214582
1572.00000000,0.57654480
1573.00000000,0.56581898
1574.00000000,0.55709308
1575.00000000,0.54763102
1576.00000000,0.54983116
1577.00000000,0.54873086
1578.00000000,0.53379774
1579.00000000,0.51813121
1580.00000000,0.52526411
1581.00000000,0.51382482
1582.00000000,0.50234417
1583.00000000,0.49142567
1584.00000000,0.48766416
1585.00000000,0.48328879
1586.00000000,0.48271543
1587.00000000,0.47431897
1588.00000000,0.47589749
1589.00000000,0.48187440
1590.00000000,0.48460019
1591.00000000,0.47775827
1592.00000000,0.47262467
1593.00000000,0.46347493
1594.00000000,0.45378631
1595.00000000,0.44621486
1596.00000000,0.44816871
1597.00000000,0.43753077
1598.00000000,0.43275657
1599.00000000,0.41895165
1600.00000000,0.40940820
1601.00000000,0.40685714
1602.00000000,0.41200950
1603.00000000,0.39967714
1604.00000000,0.38906567
1605.00000000,0.38101871
1606.00000000,0.37430914
1607.00000000,0.36784302
1608.00000000,0.36645483
1609.00000000,0.35903445
1610.00000000,0.35649637
1611.00000000,0.34809004
1612.00000000,0.34423274
1613.00000000,0.33877136
1614.00000000,0.33741487
1615.00000000,0.33370892
1616.00000000,0.33416063
1617.00000000,0.32886051
1618.00000000,0.32410695
1619.00000000,0.31597044
1620.00000000,0.31092070
1621.00000000,0.30318596
1622.00000000,0.30052338
1623.00000000,0.29274108
1624.00000000,0.28646729
1625.00000000,0.27660999
1626.00000000,0.27092825
1627.00000000,0.26316200
1628.00000000,0.26107812
1629.00000000,0.25516245
1630.00000000,0.25036895
1631.00000000,0.24300465
1632.00000000,0.23915213
1633.00000000,0.23359603
1634.00000000,0.23050219
1635.00000000,0.22476643
1636.00000000,0.22312656
1637.00000000,0.21893996
1638.00000000,0.21606280
1639.00000000,0.21112810
1640.00000000,0.20789411
1641.00000000,0.20264227
1642.00000000,0.20037575
1643.00000000,0.19561558
1644.00000000,0.19245546
1645.00000000,0.18548000
1646.00000000,0.18133115
1647.00000000,0.17586790
1648.00000000,0.17186441
1649.00000000,0.16607867
1650.00000000,0.16243469
1651.00000000,0.15543557
1652.00000000,0.15141875
1653.00000000,0.14699984
1654.00000000,0.14444760
1655.00000000,0.13915895
1656.00000000,0.13517647
1657.00000000,0.13059641
1658.00000000,0.12762904
1659.00000000,0.12474611
1660.00000000,0.12422139
1661.00000000,0.12166368
1662.00000000,0.11865660
1663.00000000,0.11498596
1664.00000000,0.11256572
1665.00000000,0.10946085
1666.00000000,0.10741862
1667.00000000,0.10334354
1668.00000000,0.10070121
1669.00000000,0.09639091
1670.00000000,0.09393357
1671.00000000,0.09072569
1672.00000000,0.08814937
1673.00000000,0.08462159
1674.00000000,0.08202147
1675.00000000,0.07852022
1676.00000000,0.07600468
1677.00000000,0.07245589
1678.00000000,0.06992707
1679.00000000,0.06714484
1680.00000000,0.06511036
1681.00000000,0.06239167
1682.00000000,0.06071667
1683.00000000,0.05890214
1684.00000000,0.05711876
1685.00000000,0.05466446
1686.00000000,0.05320358
1687.00000000,0.05107180
1688.00000000,0.04939681
1689.00000000,0.04756379
1690.00000000,0.04574862
1691.00000000,0.04374639
1692.00000000,0.04237535
1693.00000000,0.04061375
1694.00000000,0.03913166
1695.00000000,0.03725902
1696.00000000,0.03540417
1697.00000000,0.03347341
1698.00000000,0.03177187
1699.00000000,0.03004202
1700.00000000,0.02870265
1701.00000000,0.02719753
1702.00000000,0.02556206
1703.00000000,0.02430806
1704.00000000,0.02307967
1705.00000000,0.02187860
1706.00000000,0.02064758
1707.00000000,0.01991178
1708.00000000,0.01880765
1709.00000000,0.01776255
1710.00000000,0.01670861
1711.00000000,0.01586180
1712.00000000,0.01476030
1713.00000000,0.01394255
1714.00000000,0.01281458
1715.00000000,0.01221100
1716.00000000,0.01140820
1717.00000000,0.01073588
1718.00000000,0.00990399
1719.00000000,0.00931099
1720.00000000,0.00832576
1721.00000000,0.00779620
1722.00000000,0.00705944
1723.00000000,0.00656426
1724.00000000,0.00588569
1725.00000000,0.00562053
1726.00000000,0.00499744
1727.00000000,0.00465560
1728.00000000,0.00409069
1729.00000000,0.00378322
1730.00000000,0.00328703
1731.00000000,0.00317520
1732.00000000,0.00284291
1733.00000000,0.00263592
1734.00000000,0.00237235
1735.00000000,0.00225522
1736.00000000,0.00195202
1737.00000000,0.00193271
1738.00000000,0.00174846
1739.00000000,0.00171065
1740.00000000,0.00154146
1741.00000000,0.00149069
1742.00000000,0.00147985
1743.00000000,0.00156789
1744.00000000,0.00147089
1745.00000000,0.00150709
1746.00000000,0.00158059
1747.00000000,0.00174237
1748.00000000,0.00190178
1749.00000000,0.00209924
1750.00000000,0.00218201
1751.00000000,0.00229487
1752.00000000,0.00249395
1753.00000000,0.00274165
1754.00000000,0.00296717
1755.00000000,0.00315934
1756.00000000,0.00335841
1757.00000000,0.00371978
1758.00000000,0.00402461
1759.00000000,0.00426964
1760.00000000,0.00450574
1761.00000000,0.00477457
1762.00000000,0.00508470
1763.00000000,0.00553593
1764.00000000,0.00595973
1765.00000000,0.00643740
1766.00000000,0.00673959
1767.00000000,0.00701898
1768.00000000,0.00730796
1769.00000000,0.00777769
1770.00000000,0.00807989
1771.00000000,0.00853377
1772.00000000,0.00900781
1773.00000000,0.00952511
1774.00000000,0.00975858
1775.00000000,0.01022566
1776.00000000,0.01059397
1777.00000000,0.01117735
1778.00000000,0.01156945
1779.00000000,0.01212111
1780.00000000,0.01234930
1781.00000000,0.01281638
1782.00000000,0.01321112
1783.00000000,0.01377864
1784.00000000,0.01403329
1785.00000000,0.01457964
1786.00000000,0.01509072
1787.00000000,0.01579570
1788.00000000,0.01609793
1789.00000000,0.01660992
1790.00000000,0.01703112
1791.00000000,0.01761450
1792.00000000,0.01778190
1793.00000000,0.01821192
1794.00000000,0.01864637
1795.00000000,0.01933550
1796.00000000,0.01955315
1797.00000000,0.01998316
1798.00000000,0.02022195
1799.00000000,0.02080265
1800.00000000,0.02110492
1801.00000000,0.02174908
1802.00000000,0.02193237
1803.00000000,0.02244698
1804.00000000,0.02280477
1805.00000000,0.02328500
1806.00000000,0.02355026
1807.00000000,0.02402787
1808.00000000,0.02418210
1809.00000000,0.02474426
1810.00000000,0.02490641
1811.00000000,0.02536815
1812.00000000,0.02565719
1813.00000000,0.02606868
1814.00000000,0.02615684
1815.00000000,0.02647053
1816.00000000,0.02672259
1817.00000000,0.02726624
1818.00000000,0.02713234
1819.00000000,0.02726360
1820.00000000,0.02752624
1821.00000000,0.02798796
1822.00000000,0.02808933
1823.00000000,0.02845587
1824.00000000,0.02859160
1825.00000000,0.02911677
1826.00000000,0.02922345
1827.00000000,0.02958469
1828.00000000,0.02963583
1829.00000000,0.02988341
1830.00000000,0.03006147
1831.00000000,0.03015306
1832.00000000,0.03011699
1833.00000000,0.03040684
1834.00000000,0.03035490
1835.00000000,0.03054695
1836.00000000,0.03036019
1837.00000000,0.03033549
1838.00000000,0.03018837
1839.00000000,0.03046501
1840.00000000,0.03027824
1841.00000000,0.03045710
1842.00000000,0.03059020
1843.00000000,0.03068442
1844.00000000,0.03052411
1845.00000000,0.03083513
1846.00000000,0.03090741
1847.00000000,0.03123694
1848.00000000,0.03097617
1849.00000000,0.03112590
1850.00000000,0.03093915
1851.00000000,0.03091705
1852.00000000,0.03080694
1853.00000000,0.03070290
1854.00000000,0.03037339
1855.00000000,0.03031696
1856.00000000,0.03006409
1857.00000000,0.03007638
1858.00000000,0.02978914
1859.00000000,0.02976973
1860.00000000,0.02933710
1861.00000000,0.02916171
1862.00000000,0.02910447
1863.00000000,0.02908240
1864.00000000,0.02883483
1865.00000000,0.02905070
1866.00000000,0.02873175
1867.00000000,0.02897665
1868.00000000,0.02851758
1869.00000000,0.02816507
1870.00000000,0.02796773
1871.00000000,0.02763638
1872.00000000,0.02681778
1873.00000000,0.02642296
1874.00000000,0.02617799
1875.00000000,0.02603963
1876.00000000,0.02555941
1877.00000000,0.02538929
1878.00000000,0.02505974
1879.00000000,0.02542895
1880.00000000,0.02542987
1881.00000000,0.02478392
1882.00000000,0.02399439
1883.00000000,0.02432130
1884.00000000,0.02408429
1885.00000000,0.02379523
1886.00000000,0.02325418
1887.00000000,0.02318721
1888.00000000,0.02270696
1889.00000000,0.02274308
1890.00000000,0.02234745
1891.00000000,0.02205309
1892.00000000,0.02167594
1893.00000000,0.02146093
1894.00000000,0.02097275
1895.00000000,0.02066783
1896.00000000,0.02008978
1897.00000000,0.01997257
1898.00000000,0.01938657
1899.00000000,0.01911606
1900.00000000,0.01860672
1901.00000000,0.01836001
1902.00000000,0.01770528
1903.00000000,0.01769117
1904.00000000,0.01713687
1905.00000000,0.01679761
1906.00000000,0.01704963
1907.00000000,0.01688751
1908.00000000,0.01560359
1909.00000000,0.01485458
1910.00000000,0.01433728
1911.00000000,0.01447390
1912.00000000,0.01407823
1913.00000000,0.01380243
1914.00000000,0.01338030
1915.00000000,0.01361474
1916.00000000,0.01360765
1917.00000000,0.01326842
1918.00000000,0.01230172
1919.00000000,0.01224537
1920.00000000,0.01181531
1921.00000000,0.01150251
1922.00000000,0.01100373
1923.00000000,0.01089450
1924.00000000,0.01067592
1925.00000000,0.01043980
1926.00000000,0.00992249
1927.00000000,0.00981062
1928.00000000,0.00935146
1929.00000000,0.00928453
1930.00000000,0.00887297
1931.00000000,0.00872938
1932.00000000,0.00825966
1933.00000000,0.00807112
1934.00000000,0.00767276
1935.00000000,0.00766932
1936.00000000,0.00727096
1937.00000000,0.00710886
1938.00000000,0.00656511
1939.00000000,0.00638452
1940.00000000,0.00605224
1941.00000000,0.00604084
1942.00000000,0.00565571
1943.00000000,0.00547778
1944.00000000,0.00511906
1945.00000000,0.00502306
1946.00000000,0.00476216
1947.00000000,0.00454723
1948.00000000,0.00414092
1949.00000000,0.00416919
1950.00000000,0.00394265
1951.00000000,0.00384667
1952.00000000,0.00361486
1953.00000000,0.00360612
1954.00000000,0.00331083
1955.00000000,0.00321750
1956.00000000,0.00295131
1957.00000000,0.00282624
1958.00000000,0.00258119
1959.00000000,0.00257510
1960.00000000,0.00241201
1961.00000000,0.00240591
1962.00000000,0.00216351
1963.00000000,0.00205696
1964.00000000,0.00192823
1965.00000000,0.00189570
1966.00000000,0.00167444
1967.00000000,0.00164059
1968.00000000,0.00155388
1969.00000000,0.00163133
1970.00000000,0.00146189
1971.00000000,0.00142567
1972.00000000,0.00141008
1973.00000000,0.00142515
1974.00000000,0.00130434
1975.00000000,0.00126626
1976.00000000,0.00120389
1977.00000000,0.00117665
1978.00000000,0.00112457
1979.00000000,0.00122159
1980.00000000,0.00115894
1981.00000000,0.00124063
1982.00000000,0.00115021
1983.00000000,0.00111583
1984.00000000,0.00109020
1985.00000000,0.00115074
1986.00000000,0.00114202
1987.00000000,0.00116977
1988.00000000,0.00120837
1989.00000000,0.00128080
1990.00000000,0.00126600
1991.00000000,0.00134530
1992.00000000,0.00142329
1993.00000000,0.00143571
1994.00000000,0.00133342
1995.00000000,0.00138284
1996.00000000,0.00152375
1997.00000000,0.00161547
1998.00000000,0.00166914
1999.00000000,0.00176193
2000.00000000,0.00184361
2001.00000000,0.00196230
2002.00000000,0.00209475
2003.00000000,0.00223671
2004.00000000,0.00231155
2005.00000000,0.00239005
2006.00000000,0.00235385
2007.00000000,0.00242970
2008.00000000,0.00258912
2009.00000000,0.00276015
2010.00000000,0.00281912
2011.00000000,0.00299544
2012.00000000,0.00307290
2013.00000000,0.00320163
2014.00000000,0.00331081
2015.00000000,0.00347127
2016.00000000,0.00363070
2017.00000000,0.00379115
2018.00000000,0.00378668
2019.00000000,0.00396299
2020.00000000,0.00417264
2021.00000000,0.00437011
2022.00000000,0.00439207
2023.00000000,0.00455251
2024.00000000,0.00450044
2025.00000000,0.00463974
2026.00000000,0.00478861
2027.00000000,0.00509974
2028.00000000,0.00515871
2029.00000000,0.00532708
2030.00000000,0.00544951
2031.00000000,0.00562052
2032.00000000,0.00563983
2033.00000000,0.00576328
2034.00000000,0.00582225
2035.00000000,0.00613073
2036.00000000,0.00610776
2037.00000000,0.00629464
2038.00000000,0.00652546
2039.00000000,0.00678106
2040.00000000,0.00684268
2041.00000000,0.00702162
2042.00000000,0.00700393
2043.00000000,0.00718552
2044.00000000,0.00720751
2045.00000000,0.00739174
2046.00000000,0.00740313
2047.00000000,0.00757149
2048.00000000,0.00751151
2049.00000000,0.00770895
2050.00000000,0.00777851
2051.00000000,0.00814514
2052.00000000,0.00820413
2053.00000000,0.00841744
2054.00000000,0.00845527
2055.00000000,0.00868444
2056.00000000,0.00859803
2057.00000000,0.00874259
2058.00000000,0.00881215
2059.00000000,0.00910212
2060.00000000,0.00898665
2061.00000000,0.00919730
2062.00000000,0.00927215
2063.00000000,0.00938236
2064.00000000,0.00930126
2065.00000000,0.00944317
2066.00000000,0.00934619
2067.00000000,0.00947488
2068.00000000,0.00945191
2069.00000000,0.00966787
2070.00000000,0.00946514
2071.00000000,0.00964142
2072.00000000,0.00969251
2073.00000000,0.00997981
2074.00000000,0.00991190
2075.00000000,0.01005646
2076.00000000,0.01004145
2077.00000000,0.01030234
2078.00000000,0.01029788
2079.00000000,0.01043186
2080.00000000,0.01027938
2081.00000000,0.01041072
2082.00000000,0.01037454
2083.00000000,0.01052703
2084.00000000,0.01030846
2085.00000000,0.01037370
2086.00000000,0.01025559
2087.00000000,0.01041865
2088.00000000,0.01014455
2089.00000000,0.01024416
2090.00000000,0.01022649
2091.00000000,0.01032612
2092.00000000,0.01013662
2093.00000000,0.01054290
2094.00000000,0.01037189
2095.00000000,0.01010405
2096.00000000,0.00964755
2097.00000000,0.00984764
2098.00000000,0.00957616
2099.00000000,0.00951716
2100.00000000,0.00916375
2101.00000000,0.00919201
2102.00000000,0.00949158
2103.00000000,0.01009349
2104.00000000,0.01007848
2105.00000000,0.00995338
2106.00000000,0.00997536
2107.00000000,0.01023359
2108.00000000,0.00974007
2109.00000000,0.00941937
2110.00000000,0.00891791
2111.00000000,0.00906776
2112.00000000,0.00891527
2113.00000000,0.00893293
2114.00000000,0.00861917
2115.00000000,0.00892766
2116.00000000,0.00922986
2117.00000000,0.00952775
2118.00000000,0.00922721
2119.00000000,0.00905985
2120.00000000,0.00889149
2121.00000000,0.00893558
2122.00000000,0.00853723
2123.00000000,0.00857077
2124.00000000,0.00829666
2125.00000000,0.00843329
2126.00000000,0.00810897
2127.00000000,0.00804206
2128.00000000,0.00775737
2129.00000000,0.00791515
2130.00000000,0.00780495
2131.00000000,0.00784642
2132.00000000,0.00754325
2133.00000000,0.00750012
2134.00000000,0.00730795
2135.00000000,0.00738114
2136.00000000,0.00716785
2137.00000000,0.00715909
2138.00000000,0.00691407
2139.00000000,0.00701371
2140.00000000,0.00680303
2141.00000000,0.00674403
2142.00000000,0.00645142
2143.00000000,0.00646117
2144.00000000,0.00619763
2145.00000000,0.00612279
2146.00000000,0.00589627
2147.00000000,0.00592453
2148.00000000,0.00557905
2149.00000000,0.00556502
2150.00000000,0.00532789
2151.00000000,0.00538787
2152.00000000,0.00522215
2153.00000000,0.00515789
2154.00000000,0.00494191
2155.00000000,0.00496490
2156.00000000,0.00469343
2157.00000000,0.00464238
2158.00000000,0.00448458
2159.00000000,0.00456838
2160.00000000,0.00437886
2161.00000000,0.00429080
2162.00000000,0.00404311
2163.00000000,0.00403701
2164.00000000,0.00378403
2165.00000000,0.00378322
2166.00000000,0.00355669
2167.00000000,0.00361934
2168.00000000,0.00338220
2169.00000000,0.00329680
2170.00000000,0.00311520
2171.00000000,0.00310910
2172.00000000,0.00297509
2173.00000000,0.00296108
2174.00000000,0.00272395
2175.00000000,0.00276281
2176.00000000,0.00263143
2177.00000000,0.00273107
2178.00000000,0.00259970
2179.00000000,0.00254338
2180.00000000,0.00236177
2181.00000000,0.00229487
2182.00000000,0.00213707
2183.00000000,0.00213099
2184.00000000,0.00190708
2185.00000000,0.00191686
2186.00000000,0.00180398
2187.00000000,0.00178467
2188.00000000,0.00161892
2189.00000000,0.00158138
2190.00000000,0.00152904
2191.00000000,0.00154145
2192.00000000,0.00147088
2193.00000000,0.00142064
2194.00000000,0.00132785
2195.00000000,0.00132997
2196.00000000,0.00122238
2197.00000000,0.00132308
2198.00000000,0.00121945
2199.00000000,0.00118193
2200.00000000,0.00108810
2201.00000000,0.00112694
2202.00000000,0.00110499
2203.00000000,0.00098762
2204.00000000,0.00092736
2205.00000000,0.00095061
2206.00000000,0.00087950
2207.00000000,0.00088427
2208.00000000,0.00080734
2209.00000000,0.00088876
2210.00000000,0.00083006
2211.00000000,0.00082081
2212.00000000,0.00074310
2213.00000000,0.00078275
2214.00000000,0.00070054
2215.00000000,0.00070424
2216.00000000,0.00068758
2217.00000000,0.00079199
2218.00000000,0.00078486
2219.00000000,0.00077667
2220.00000000,0.00078751
2221.00000000,0.00082716
2222.00000000,0.00084144
2223.00000000,0.00092074
2224.00000000,0.00084883
2225.00000000,0.00082028
2226.00000000,0.00081024
2227.00000000,0.00086628
2228.00000000,0.00081976
2229.00000000,0.00090672
2230.00000000,0.00100137
2231.00000000,0.00100244
2232.00000000,0.00097944
2233.00000000,0.00103997
2234.00000000,0.00108095
2235.00000000,0.00110896
2236.00000000,0.00114835
2237.00000000,0.00115047
2238.00000000,0.00114941
2239.00000000,0.00118246
2240.00000000,0.00121605
2241.00000000,0.00135376
2242.00000000,0.00137042
2243.00000000,0.00147272
2244.00000000,0.00156340
2245.00000000,0.00162077
2246.00000000,0.00160306
2247.00000000,0.00162605
2248.00000000,0.00164535
2249.00000000,0.00167098
2250.00000000,0.00171223
2251.00000000,0.00178731
2252.00000000,0.00185685
2253.00000000,0.00199087
2254.00000000,0.00198374
2255.00000000,0.00197764
2256.00000000,0.00193351
2257.00000000,0.00205696
2258.00000000,0.00221902
2259.00000000,0.00231867
2260.00000000,0.00226132
2261.00000000,0.00234247
2262.00000000,0.00240142
2263.00000000,0.00245086
2264.00000000,0.00239349
2265.00000000,0.00251958
2266.00000000,0.00259441
2267.00000000,0.00270200
2268.00000000,0.00264463
2269.00000000,0.00268347
2270.00000000,0.00275036
2271.00000000,0.00291876
2272.00000000,0.00294074
2273.00000000,0.00307739
2274.00000000,0.00307026
2275.00000000,0.00317785
2276.00000000,0.00318394
2277.00000000,0.00326508
2278.00000000,0.00326852
2279.00000000,0.00336819
2280.00000000,0.00332935
2281.00000000,0.00347656
2282.00000000,0.00345357
2283.00000000,0.00358496
2284.00000000,0.00364922
2285.00000000,0.00382024
2286.00000000,0.00374174
2287.00000000,0.00377795
2288.00000000,0.00382104
2289.00000000,0.00397884
2290.00000000,0.00394000
2291.00000000,0.00394714
2292.00000000,0.00388715
2293.00000000,0.00413482
2294.00000000,0.00415413
2295.00000000,0.00414539
2296.00000000,0.00417000
2297.00000000,0.00430666
2298.00000000,0.00419908
2299.00000000,0.00426964
2300.00000000,0.00425989
2301.00000000,0.00438068
2302.00000000,0.00430481
2303.00000000,0.00435688
2304.00000000,0.00436298
2305.00000000,0.00448907
2306.00000000,0.00450839
2307.00000000,0.00461596
2308.00000000,0.00457448
2309.00000000,0.00465826
2310.00000000,0.00459561
2311.00000000,0.00473227
2312.00000000,0.00464057
2313.00000000,0.00467676
2314.00000000,0.00469607
2315.00000000,0.00484329
2316.00000000,0.00466963
2317.00000000,0.00473755
2318.00000000,0.00465642
2319.00000000,0.00474549
2320.00000000,0.00465908
2321.00000000,0.00470320
2322.00000000,0.00468021
2323.00000000,0.00483802
2324.00000000,0.00470402
2325.00000000,0.00480101
2326.00000000,0.00476747
2327.00000000,0.00480630
2328.00000000,0.00468550
2329.00000000,0.00485918
2330.00000000,0.00476746
2331.00000000,0.00478515
2332.00000000,0.00470137
2333.00000000,0.00476929
2334.00000000,0.00471193
2335.00000000,0.00477193
2336.00000000,0.00462207
2337.00000000,0.00468205
2338.00000000,0.00455596
2339.00000000,0.00461859
2340.00000000,0.00449252
2341.00000000,0.00445999
2342.00000000,0.00430217
2343.00000000,0.00448114
2344.00000000,0.00431805
2345.00000000,0.00446527
2346.00000000,0.00443435
2347.00000000,0.00445733
2348.00000000,0.00438679
2349.00000000,0.00447321
2350.00000000,0.00429954
2351.00000000,0.00433309
2352.00000000,0.00418322
2353.00000000,0.00429079
2354.00000000,0.00413034
2355.00000000,0.00414539
2356.00000000,0.00411448
2357.00000000,0.00420091
2358.00000000,0.00392943
2359.00000000,0.00392334
2360.00000000,0.00386599
2361.00000000,0.00391805
2362.00000000,0.00382634
2363.00000000,0.00380173
2364.00000000,0.00368359
2365.00000000,0.00379645
2366.00000000,0.00373644
2367.00000000,0.00373034
2368.00000000,0.00364921
2369.00000000,0.00374622
2370.00000000,0.00356989
2371.00000000,0.00354529
2372.00000000,0.00335048
2373.00000000,0.00335498
2374.00000000,0.00320244
2375.00000000,0.00322805
2376.00000000,0.00321830
2377.00000000,0.00324393
2378.00000000,0.00300680
2379.00000000,0.00305358
2380.00000000,0.00296452
2381.00000000,0.00299016
2382.00000000,0.00283763
2383.00000000,0.00285002
2384.00000000,0.00284820
2385.00000000,0.00284212
2386.00000000,0.00271866
2387.00000000,0.00276544
2388.00000000,0.00258385
2389.00000000,0.00267821
2390.00000000,0.00251510
2391.00000000,0.00244556
2392.00000000,0.00231683
2393.00000000,0.00239798
2394.00000000,0.00230888
2395.00000000,0.00228270
2396.00000000,0.00219257
2397.00000000,0.00229224
2398.00000000,0.00216881
2399.00000000,0.00213365
2400.00000000,0.00200490
2401.00000000,0.00199087
2402.00000000,0.00185686
2403.00000000,0.00184812
2404.00000000,0.00179076
2405.00000000,0.00185606
2406.00000000,0.00171673
2407.00000000,0.00172121
2408.00000000,0.00162420
2409.00000000,0.00168684
2410.00000000,0.00157212
2411.00000000,0.00154145
2412.00000000,0.00143491
2413.00000000,0.00135747
2414.00000000,0.00132416
2415.00000000,0.00139606
2416.00000000,0.00126124
2417.00000000,0.00126837
2418.00000000,0.00126732
2419.00000000,0.00124536
2420.00000000,0.00112271
2421.00000000,0.00117162
2422.00000000,0.00108836
2423.00000000,0.00105900
2424.00000000,0.00104896
2425.00000000,0.00113037
2426.00000000,0.00102966
2427.00000000,0.00109204
2428.00000000,0.00097440
2429.00000000,0.00092126
2430.00000000,0.00088399
2431.00000000,0.00087341
2432.00000000,0.00082319
2433.00000000,0.00090725
2434.00000000,0.00085834
2435.00000000,0.00082953
2436.00000000,0.00084409
2437.00000000,0.00087580
2438.00000000,0.00071905
2439.00000000,0.00069419
2440.00000000,0.00070424
2441.00000000,0.00075790
2442.00000000,0.00074891
2443.00000000,0.00076424
2444.00000000,0.00079490
2445.00000000,0.00077085
2446.00000000,0.00065005
2447.00000000,0.00063260
2448.00000000,0.00062441
2449.00000000,0.00066617
2450.00000000,0.00062573
2451.00000000,0.00066220
2452.00000000,0.00067331
2453.00000000,0.00068785
2454.00000000,0.00067462
2455.00000000,0.00076318
2456.00000000,0.00074415
2457.00000000,0.00077799
2458.00000000,0.00079623
2459.00000000,0.00080442
2460.00000000,0.00074414
2461.00000000,0.00075156
2462.00000000,0.00075263
2463.00000000,0.00082796
2464.00000000,0.00076663
2465.00000000,0.00076556
2466.00000000,0.00082108
2467.00000000,0.00086972
2468.00000000,0.00085094
2469.00000000,0.00083508
2470.00000000,0.00084671
2471.00000000,0.00092205
2472.00000000,0.00090196
2473.00000000,0.00085808
2474.00000000,0.00086787
2475.00000000,0.00084250
2476.00000000,0.00088084
2477.00000000,0.00099978
2478.00000000,0.00090488
2479.00000000,0.00089589
2480.00000000,0.00095695
2481.00000000,0.00101511
2482.00000000,0.00099266
2483.00000000,0.00103389
2484.00000000,0.00101645
2485.00000000,0.00101593
2486.00000000,0.00107409
2487.00000000,0.00119093
2488.00000000,0.00123560
2489.00000000,0.00122158
2490.00000000,0.00117929
2491.00000000,0.00123666
2492.00000000,0.00121525
2493.00000000,0.00126414
2494.00000000,0.00129374
2495.00000000,0.00130380
2496.00000000,0.00135985
2497.00000000,0.00147855
2498.00000000,0.00146825
2499.00000000,0.00149652
2500.00000000,0.00149731
2501.00000000,0.00155202
2502.00000000,0.00148145
2503.00000000,0.00149889
2504.00000000,0.00153963
2505.00000000,0.00159963
2506.00000000,0.00165594
2507.00000000,0.00171857
2508.00000000,0.00165064
2509.00000000,0.00165779
2510.00000000,0.00166916
2511.00000000,0.00173709
2512.00000000,0.00166651
2513.00000000,0.00182432
2514.00000000,0.00191766
2515.00000000,0.00192744
2516.00000000,0.00187536
2517.00000000,0.00195121
2518.00000000,0.00198109
2519.00000000,0.00202259
2520.00000000,0.00199165
2521.00000000,0.00199615
2522.00000000,0.00187007
2523.00000000,0.00190363
2524.00000000,0.00193617
2525.00000000,0.00210720
2526.00000000,0.00206040
2527.00000000,0.00213362
2528.00000000,0.00224018
2529.00000000,0.00226581
2530.00000000,0.00221109
2531.00000000,0.00224729
2532.00000000,0.00220580
2533.00000000,0.00228696
2534.00000000,0.00232477
2535.00000000,0.00234774
2536.00000000,0.00222429
2537.00000000,0.00229488
2538.00000000,0.00230362
2539.00000000,0.00235569
2540.00000000,0.00222696
2541.00000000,0.00228695
2542.00000000,0.00231155
2543.00000000,0.00239005
2544.00000000,0.00236705
2545.00000000,0.00251166
2546.00000000,0.00246224
2547.00000000,0.00246935
2548.00000000,0.00256798
2549.00000000,0.00262796
2550.00000000,0.00250982
2551.00000000,0.00262798
2552.00000000,0.00255211
2553.00000000,0.00256451
2554.00000000,0.00254682
2555.00000000,0.00253016
2556.00000000,0.00241201
2557.00000000,0.00246673
2558.00000000,0.00242522
2559.00000000,0.00245615
2560.00000000,0.00236179
2561.00000000,0.00249052
2562.00000000,0.00255212
2563.00000000,0.00268613
2564.00000000,0.00261821
2565.00000000,0.00253280
2566.00000000,0.00249658
2567.00000000,0.00254865
2568.00000000,0.00245429
2569.00000000,0.00250371
2570.00000000,0.00245958
2571.00000000,0.00251960
2572.00000000,0.00240408
2573.00000000,0.00243235
2574.00000000,0.00236971
2575.00000000,0.00249580
2576.00000000,0.00239879
2577.00000000,0.00236627
2578.00000000,0.00228512
2579.00000000,0.00235304
2580.00000000,0.00234590
2581.00000000,0.00238476
2582.00000000,0.00237765
2583.00000000,0.00248523
2584.00000000,0.00247545
2585.00000000,0.00248257
2586.00000000,0.00236177
2587.00000000,0.00245086
2588.00000000,0.00226397
2589.00000000,0.00221294
2590.00000000,0.00206305
2591.00000000,0.00203845
2592.00000000,0.00201810
2593.00000000,0.00213098
2594.00000000,0.00203661
2595.00000000,0.00215477
2596.00000000,0.00227454
2597.00000000,0.00231867
2598.00000000,0.00215029
2599.00000000,0.00217724
2600.00000000,0.00206385
2601.00000000,0.00209134
2602.00000000,0.00203396
2603.00000000,0.00200143
2604.00000000,0.00202603
2605.00000000,0.00210983
2606.00000000,0.00191500
2607.00000000,0.00188540
2608.00000000,0.00174847
2609.00000000,0.00175903
2610.00000000,0.00171409
2611.00000000,0.00168686
2612.00000000,0.00164801
2613.00000000,0.00177409
2614.00000000,0.00187269
2615.00000000,0.00190890
2616.00000000,0.00171408
2617.00000000,0.00167099
2618.00000000,0.00162949
2619.00000000,0.00168421
2620.00000000,0.00157399
2621.00000000,0.00160491
2622.00000000,0.00150262
2623.00000000,0.00152084
2624.00000000,0.00155548
2625.00000000,0.00154808
2626.00000000,0.00147723
2627.00000000,0.00151766
2628.00000000,0.00138362
2629.00000000,0.00134662
2630.00000000,0.00129218
2631.00000000,0.00137887
2632.00000000,0.00127790
2633.00000000,0.00127552
2634.00000000,0.00118801
2635.00000000,0.00123295
2636.00000000,0.00122846
2637.00000000,0.00122159
2638.00000000,0.00111400
2639.00000000,0.00115126
2640.00000000,0.00115258
2641.00000000,0.00114043
2642.00000000,0.00100429
2643.00000000,0.00102729
2644.00000000,0.00105452
2645.00000000,0.00107354
2646.00000000,0.00102068
2647.00000000,0.00106721
2648.00000000,0.00105584
2649.00000000,0.00099106
2650.00000000,0.00092048
2651.00000000,0.00095562
2652.00000000,0.00088981
2653.00000000,0.00090145
2654.00000000,0.00093212
2655.00000000,0.00087633
2656.00000000,0.00084567
2657.00000000,0.00088137
2658.00000000,0.00080391
2659.00000000,0.00080072
2660.00000000,0.00077191
2661.00000000,0.00074600
2662.00000000,0.00070741
2663.00000000,0.00074256
2664.00000000,0.00068493
2665.00000000,0.00067066
2666.00000000,0.00070080
2667.00000000,0.00073569
2668.00000000,0.00067039
2669.00000000,0.00074679
2670.00000000,0.00069815
2671.00000000,0.00074045
2672.00000000,0.00066591
2673.00000000,0.00069578
2674.00000000,0.00059822
2675.00000000,0.00057152
2676.00000000,0.00062044
2677.00000000,0.00071427
2678.00000000,0.00072301
2679.00000000,0.00070980
2680.00000000,0.00059611
2681.00000000,0.00064554
2682.00000000,0.00069869
2683.00000000,0.00066432
2684.00000000,0.00063577
2685.00000000,0.00068547
2686.00000000,0.00067357
2687.00000000,0.00067700
2688.00000000,0.00059426
2689.00000000,0.00066748
2690.00000000,0.00067251
2691.00000000,0.00071508
2692.00000000,0.00074600
2693.00000000,0.00071242
2694.00000000,0.00063444
2695.00000000,0.00071799
2696.00000000,0.00075316
2697.00000000,0.00079651
2698.00000000,0.00070106
2699.00000000,0.00063602
2700.00000000,0.00060907
2701.00000000,0.00068838
2702.00000000,0.00069102
2703.00000000,0.00066774
2704.00000000,0.00073991
2705.00000000,0.00077164
2706.00000000,0.00070053
2707.00000000,0.00077878
2708.00000000,0.00077931
2709.00000000,0.00077588
2710.00000000,0.00077641
2711.00000000,0.00083721
2712.00000000,0.00085149
2713.00000000,0.00086391
2714.00000000,0.00082373
2715.00000000,0.00084805
2716.00000000,0.00084859
2717.00000000,0.00089934
2718.00000000,0.00088136
2719.00000000,0.00097255
2720.00000000,0.00092946
2721.00000000,0.00089695
2722.00000000,0.00087687
2723.00000000,0.00090331
2724.00000000,0.00091229
2725.00000000,0.00091334
2726.00000000,0.00086179
2727.00000000,0.00094850
2728.00000000,0.00100324
2729.00000000,0.00103442
2730.00000000,0.00100561
2731.00000000,0.00106879
2732.00000000,0.00112115
2733.00000000,0.00109787
2734.00000000,0.00107115
2735.00000000,0.00111372
2736.00000000,0.00103179
2737.00000000,0.00104103
2738.00000000,0.00101459
2739.00000000,0.00110420
2740.00000000,0.00109443
2741.00000000,0.00114704
2742.00000000,0.00112563
2743.00000000,0.00112377
2744.00000000,0.00112114
2745.00000000,0.00119542
2746.00000000,0.00110132
2747.00000000,0.00117268
2748.00000000,0.00122874
2749.00000000,0.00126654
2750.00000000,0.00124486
2751.00000000,0.00120863
2752.00000000,0.00119171
2753.00000000,0.00130617
2754.00000000,0.00134664
2755.00000000,0.00134320
2756.00000000,0.00114254
2757.00000000,0.00105054
2758.00000000,0.00103786
2759.00000000,0.00115894
2760.00000000,0.00129112
2761.00000000,0.00138020
2762.00000000,0.00119066
2763.00000000,0.00109654
2764.00000000,0.00101644
2765.00000000,0.00107249
2766.00000000,0.00111691
2767.00000000,0.00113196
2768.00000000,0.00117770
2769.00000000,0.00125330
2770.00000000,0.00133977
2771.00000000,0.00136302
2772.00000000,0.00120467
2773.00000000,0.00125330
2774.00000000,0.00135482
2775.00000000,0.00140135
2776.00000000,0.00133870
2777.00000000,0.00141298
2778.00000000,0.00137308
2779.00000000,0.00148330
2780.00000000,0.00150259
2781.00000000,0.00138019
2782.00000000,0.00133182
2783.00000000,0.00140927
2784.00000000,0.00134133
2785.00000000,0.00137862
2786.00000000,0.00138232
2787.00000000,0.00143941
2788.00000000,0.00138523
2789.00000000,0.00142514
2790.00000000,0.00141007
2791.00000000,0.00134582
2792.00000000,0.00124617
2793.00000000,0.00140399
2794.00000000,0.00142593
2795.00000000,0.00144099
2796.00000000,0.00135429
2797.00000000,0.00140160
2798.00000000,0.00143650
2799.00000000,0.00148329
2800.00000000,0.00135059
2801.00000000,0.00133525
2802.00000000,0.00131491
2803.00000000,0.00134847
2804.00000000,0.00132284
2805.00000000,0.00133790
2806.00000000,0.00128104
2807.00000000,0.00135374
2808.00000000,0.00129110
2809.00000000,0.00126651
2810.00000000,0.00135719
2811.00000000,0.00146001
2812.00000000,0.00140214
2813.00000000,0.00137226
2814.00000000,0.00132019
2815.00000000,0.00130327
2816.00000000,0.00120387
2817.00000000,0.00126176
2818.00000000,0.00118881
2819.00000000,0.00122105
2820.00000000,0.00119277
2821.00000000,0.00120413
2822.00000000,0.00112456
2823.00000000,0.00115575
2824.00000000,0.00112086
2825.00000000,0.00116342
2826.00000000,0.00122608
2827.00000000,0.00125014
2828.00000000,0.00122555
2829.00000000,0.00123030
2830.00000000,0.00116844
2831.00000000,0.00117822
2832.00000000,0.00110263
2833.00000000,0.00116818
2834.00000000,0.00112482
2835.00000000,0.00111477
2836.00000000,0.00106747
2837.00000000,0.00105954
2838.00000000,0.00105822
2839.00000000,0.00108412
2840.00000000,0.00103734
2841.00000000,0.00107144
2842.00000000,0.00107673
2843.00000000,0.00114625
2844.00000000,0.00103019
2845.00000000,0.00096595
2846.00000000,0.00093292
2847.00000000,0.00099583
2848.00000000,0.00105504
2849.00000000,0.00107196
2850.00000000,0.00095855
2851.00000000,0.00099476
2852.00000000,0.00095696
2853.00000000,0.00093263
2854.00000000,0.00095696
2855.00000000,0.00093687
2856.00000000,0.00091122
2857.00000000,0.00095033
2858.00000000,0.00094347
2859.00000000,0.00095062
2860.00000000,0.00082691
2861.00000000,0.00084646
2862.00000000,0.00073966
2863.00000000,0.00080839
2864.00000000,0.00087871
2865.00000000,0.00096937
2866.00000000,0.00087420
2867.00000000,0.00083773
2868.00000000,0.00084409
2869.00000000,0.00083932
2870.00000000,0.00078328
2871.00000000,0.00078276
2872.00000000,0.00071482
2873.00000000,0.00073463
2874.00000000,0.00073014
2875.00000000,0.00078910
2876.00000000,0.00081633
2877.00000000,0.00085967
2878.00000000,0.00078407
2879.00000000,0.00074336
2880.00000000,0.00067040
2881.00000000,0.00070238
2882.00000000,0.00066801
2883.00000000,0.00071295
2884.00000000,0.00071295
2885.00000000,0.00072988
2886.00000000,0.00065692
2887.00000000,0.00064925
2888.00000000,0.00068044
2889.00000000,0.00069656
2890.00000000,0.00063630
2891.00000000,0.00064634
2892.00000000,0.00069234
2893.00000000,0.00072961
2894.00000000,0.00067014
2895.00000000,0.00072328
2896.00000000,0.00063762
2897.00000000,0.00062307
2898.00000000,0.00070608
2899.00000000,0.00074098
2900.00000000,0.00062651
2901.00000000,0.00057681
2902.00000000,0.00053214
2903.00000000,0.00057549
2904.00000000,0.00062757
2905.00000000,0.00066192
2906.00000000,0.00059821
2907.00000000,0.00056570
2908.00000000,0.00052078
2909.00000000,0.00056068
2910.00000000,0.00052975
2911.00000000,0.00057205
2912.00000000,0.00057628
2913.00000000,0.00057231
2914.00000000,0.00062519
2915.00000000,0.00065637
2916.00000000,0.00062598
2917.00000000,0.00060748
2918.00000000,0.00058290
2919.00000000,0.00060113
2920.00000000,0.00055223
2921.00000000,0.00051388
2922.00000000,0.00051574
2923.00000000,0.00052421
2924.00000000,0.00052580
2925.00000000,0.00058475
2926.00000000,0.00055672
2927.00000000,0.00058209
2928.00000000,0.00055275
2929.00000000,0.00057019
2930.00000000,0.00054720
2931.00000000,0.00050016
2932.00000000,0.00054087
2933.00000000,0.00068018
2934.00000000,0.00064846
2935.00000000,0.00059031
2936.00000000,0.00059189
2937.00000000,0.00057576
2938.00000000,0.00054006
2939.00000000,0.00057522
2940.00000000,0.00058396
2941.00000000,0.00056254
2942.00000000,0.00054351
2943.00000000,0.00061832
2944.00000000,0.00059294
2945.00000000,0.00064026
2946.00000000,0.00061489
2947.00000000,0.00062096
2948.00000000,0.00061673
2949.00000000,0.00063048
2950.00000000,0.00054509
2951.00000000,0.00059346
2952.00000000,0.00062810
2953.00000000,0.00063550
2954.00000000,0.00064052
2955.00000000,0.00072168
2956.00000000,0.00063895
2957.00000000,0.00066512
2958.00000000,0.00067013
2959.00000000,0.00059162
2960.00000000,0.00060088
2961.00000000,0.00073808
2962.00000000,0.00066247
2963.00000000,0.00068335
2964.00000000,0.00069341
2965.00000000,0.00070768
2966.00000000,0.00075049
2967.00000000,0.00076318
2968.00000000,0.00074018
2969.00000000,0.00078592
2970.00000000,0.00072486
2971.00000000,0.00077429
2972.00000000,0.00079755
2973.00000000,0.00084937
2974.00000000,0.00080521
2975.00000000,0.00081050
2976.00000000,0.00072036
2977.00000000,0.00071058
2978.00000000,0.00067225
2979.00000000,0.00073516
2980.00000000,0.00082955
2981.00000000,0.00081660
2982.00000000,0.00077270
2983.00000000,0.00076054
2984.00000000,0.00075156
2985.00000000,0.00081236
2986.00000000,0.00084990
2987.00000000,0.00088241
2988.00000000,0.00084038
2989.00000000,0.00090278
2990.00000000,0.00080099
2991.00000000,0.00082874
2992.00000000,0.00083483
2993.00000000,0.00089404
2994.00000000,0.00084409
2995.00000000,0.00089113
2996.00000000,0.00086047
2997.00000000,0.00084487
2998.00000000,0.00086788
2999.00000000,0.00088955
3000.00000000,0.00084567
